timestamps,TP9,AF7,AF8,TP10,Right AUX
1759592735.797,-1000.000,55.176,969.727,-87.891,0.000
1759592735.801,-1000.000,44.922,970.215,-92.285,0.000
1759592735.805,-1000.000,42.969,970.215,-82.520,0.000
1759592735.809,-1000.000,41.992,970.215,-75.195,0.000
1759592735.813,-997.559,40.039,970.215,-69.824,0.000
1759592735.817,-1000.000,34.180,970.215,-73.242,0.000
1759592735.820,-946.289,27.344,970.215,-80.078,0.000
1759592735.824,-939.941,19.531,969.727,-76.172,0.000
1759592735.828,-1000.000,14.160,969.727,-51.270,0.000
1759592735.832,-1000.000,9.766,970.215,-45.410,0.000
1759592735.836,-933.594,2.930,970.215,-57.129,0.000
1759592735.840,-894.043,-0.977,970.215,-48.340,0.000
1759592754.687,331.543,-29.297,-53.711,65.918,0.000
1759592754.691,-7.812,-34.180,-46.875,55.176,0.000
1759592754.695,-241.211,-36.621,-48.828,56.152,0.000
1759592754.698,-2.441,-29.785,-56.152,59.082,0.000
1759592754.702,336.914,-21.484,-52.246,53.223,0.000
1759592754.706,130.859,-14.160,-47.363,57.129,0.000
1759592754.710,-212.402,-15.625,-48.828,58.594,0.000
1759592754.714,-99.121,-24.414,-49.805,56.152,0.000
1759592754.718,298.340,-29.785,-49.316,54.199,0.000
1759592754.722,237.793,-27.344,-42.969,55.176,0.000
1759592754.726,-179.688,-30.273,-45.410,58.105,0.000
1759592754.730,-197.266,-30.273,-48.340,59.082,0.000
1759592754.734,175.781,-26.367,-45.410,48.828,0.000
1759592754.738,298.828,-23.438,-43.457,43.457,0.000
1759592754.741,-81.543,-14.648,-43.457,56.152,0.000
1759592754.745,-228.027,-7.324,-41.992,57.617,0.000
1759592754.749,92.285,-9.277,-34.180,56.152,0.000
1759592754.753,349.121,-17.578,-33.691,56.152,0.000
1759592754.757,17.578,-22.461,-40.039,53.711,0.000
1759592754.761,-254.883,-20.996,-39.551,55.664,0.000
1759592754.765,-39.551,-21.973,-32.715,44.434,0.000
1759592754.769,320.801,-24.902,-32.227,32.227,0.000
1759592754.773,154.297,-23.926,-38.086,45.410,0.000
1759592754.777,-215.820,-25.879,-42.480,41.016,0.000
1759592754.781,-142.578,-25.879,-38.086,27.344,0.000
1759592754.784,246.582,-31.250,-37.109,23.438,0.000
1759592754.788,231.934,-30.273,-36.133,25.391,0.000
1759592754.792,-170.898,-22.949,-35.645,31.738,0.000
1759592754.796,-206.055,-25.391,-36.621,26.855,0.000
1759592754.800,165.039,-23.926,-39.062,20.020,0.000
1759592754.804,306.641,-22.949,-44.434,32.227,0.000
1759592754.808,-78.125,-25.391,-36.133,38.574,0.000
1759592754.812,-255.371,-21.973,-25.391,34.180,0.000
1759592754.816,39.551,-24.414,-28.809,33.691,0.000
1759592754.820,314.941,-29.297,-32.227,23.438,0.000
1759592754.823,23.438,-28.809,-29.785,26.367,0.000
1759592754.827,-267.578,-24.414,-29.297,29.297,0.000
1759592754.831,-88.867,-26.367,-27.344,19.531,0.000
1759592754.835,277.832,-23.926,-20.020,12.207,0.000
1759592754.839,137.207,-20.508,-14.648,11.719,0.000
1759592754.843,-241.699,-26.855,-18.066,20.020,0.000
1759592754.847,-187.012,-20.020,-25.879,21.484,0.000
1759592754.851,209.473,-9.277,-21.973,19.531,0.000
1759592754.855,237.793,-15.137,-13.672,12.207,0.000
1759592754.859,-169.922,-22.949,-20.020,6.348,0.000
1759592754.863,-242.676,-23.438,-22.461,6.836,0.000
1759592754.866,92.285,-20.996,-18.066,-1.953,0.000
1759592754.870,281.738,-19.531,-19.531,-3.418,0.000
1759592754.874,-73.242,-22.461,-20.020,3.906,0.000
1759592754.878,-288.086,-25.879,-18.066,3.906,0.000
1759592754.882,-18.066,-23.438,-15.625,-2.441,0.000
1759592754.886,300.293,-21.973,-13.184,-8.301,0.000
1759592754.890,43.945,-23.438,-10.742,4.883,0.000
1759592754.894,-272.461,-23.926,-12.207,19.043,0.000
1759592754.898,-121.582,-19.531,-10.254,7.812,0.000
1759592754.902,250.000,-16.602,-9.277,-9.766,0.000
1759592754.905,145.020,-22.949,-13.184,0.000,0.000
1759592754.909,-260.254,-24.414,-15.625,11.719,0.000
1759592754.913,-236.328,-21.484,-11.719,4.395,0.000
1759592754.917,157.227,-22.461,-12.695,-13.672,0.000
1759592754.921,220.703,-20.508,-17.578,-15.137,0.000
1759592754.925,-187.500,-24.902,-13.672,-3.418,0.000
1759592754.929,-282.227,-31.250,-9.277,-4.883,0.000
1759592754.933,52.734,-26.367,-13.184,-18.555,0.000
1759592754.937,272.461,-25.391,-16.602,-13.672,0.000
1759592754.941,-60.547,-26.367,-13.184,2.441,0.000
1759592754.945,-298.828,-17.090,-7.812,1.465,0.000
1759592754.948,-53.223,-14.648,-5.859,-10.742,0.000
1759592754.952,281.738,-22.461,-16.113,-11.719,0.000
1759592754.956,57.129,-25.391,-16.113,6.348,0.000
1759592754.960,-286.621,-23.926,-8.301,-0.488,0.000
1759592754.964,-166.504,-28.809,-12.695,-15.137,0.000
1759592754.968,230.957,-24.414,-9.277,-21.973,0.000
1759592754.972,169.434,-20.508,-7.812,-15.137,0.000
1759592754.976,-236.816,-24.414,-6.348,-7.324,0.000
1759592754.980,-240.234,-25.391,-9.277,-10.742,0.000
1759592754.984,130.859,-24.902,-16.113,-19.043,0.000
1759592754.988,238.770,-28.320,-11.230,-12.695,0.000
1759592754.991,-158.203,-31.250,-4.395,-2.930,0.000
1759592754.995,-303.223,-26.367,-9.766,-11.230,0.000
1759592754.999,7.324,-21.973,-17.090,-0.488,0.000
1759592755.003,273.438,-20.996,-12.207,-7.812,0.000
1759592755.007,-34.180,-19.531,-2.930,-18.555,0.000
1759592755.011,-314.453,-21.484,-10.742,-14.648,0.000
1759592755.015,-92.285,-22.949,-16.602,-15.625,0.000
1759592755.019,264.160,-21.484,-12.207,-19.531,0.000
1759592755.023,71.289,-24.902,-15.625,-15.625,0.000
1759592755.027,-288.086,-29.297,-20.508,-10.742,0.000
1759592755.030,-212.891,-29.297,-13.672,-19.043,0.000
1759592755.034,178.223,-30.273,-8.789,-27.344,0.000
1759592755.038,166.504,-34.180,-10.254,-31.738,0.000
1759592755.042,-241.699,-30.762,-20.508,-19.043,0.000
1759592755.046,-282.227,-24.902,-23.926,-10.742,0.000
1759592755.050,85.449,-28.320,-16.113,-28.809,0.000
1759592755.054,235.352,-30.273,-17.090,-40.527,0.000
1759592755.058,-143.066,-28.320,-20.996,-30.273,0.000
1759592755.062,-315.430,-28.809,-19.043,-29.297,0.000
1759592755.066,-24.414,-33.691,-14.160,-40.039,0.000
1759592755.070,258.789,-34.180,-15.137,-40.039,0.000
1759592755.073,-26.367,-30.762,-14.648,-29.297,0.000
1759592755.077,-313.965,-34.180,-14.648,-28.320,0.000
1759592755.081,-132.324,-33.203,-20.996,-34.668,0.000
1759592755.085,226.074,-28.809,-27.344,-45.898,0.000
1759592755.089,73.730,-31.250,-27.832,-35.645,0.000
1759592755.093,-291.504,-25.391,-17.090,-23.438,0.000
1759592755.097,-223.633,-18.066,-6.348,-36.133,0.000
1759592755.101,153.320,-22.949,-10.742,-49.805,0.000
1759592755.105,170.410,-27.832,-13.184,-43.457,0.000
1759592755.109,-231.445,-33.691,-9.766,-32.715,0.000
1759592755.113,-309.082,-37.598,-8.301,-40.527,0.000
1759592755.116,48.828,-34.668,-6.348,-39.062,0.000
1759592755.120,245.605,-33.691,-3.906,-31.250,0.000
1759592755.124,-117.676,-29.297,-3.906,-18.555,0.000
1759592755.128,-314.453,-24.902,-6.836,-15.625,0.000
1759592755.132,-42.969,-27.344,-13.184,-23.926,0.000
1759592755.136,252.930,-30.762,-15.137,-22.461,0.000
1759592755.140,3.418,-33.691,-11.719,-22.949,0.000
1759592755.144,-302.246,-36.133,-14.160,-27.344,0.000
1759592755.148,-153.809,-30.273,-14.648,-24.414,0.000
1759592755.152,222.656,-31.738,-11.719,-29.785,0.000
1759592755.155,116.699,-37.109,-7.324,-25.879,0.000
1759592755.159,-263.184,-34.668,-8.301,-14.160,0.000
1759592755.163,-234.863,-33.691,-11.230,-14.160,0.000
1759592755.167,148.438,-35.156,-4.395,-20.020,0.000
1759592755.171,198.730,-28.809,-4.883,-18.555,0.000
1759592755.175,-207.520,-28.809,-17.578,-12.695,0.000
1759592755.179,-297.363,-28.809,-22.461,-7.324,0.000
1759592755.183,37.598,-30.273,-13.672,-13.184,0.000
1759592755.187,262.695,-35.645,-7.812,-27.832,0.000
1759592755.191,-80.078,-35.645,-7.812,-16.113,0.000
1759592755.195,-312.988,-33.691,-3.418,-6.836,0.000
1759592755.198,-63.965,-31.738,-7.324,-15.137,0.000
1759592755.202,264.648,-30.762,-9.277,-24.414,0.000
1759592755.206,37.598,-30.273,-9.277,-14.648,0.000
1759592755.210,-299.316,-32.715,-16.113,-10.742,0.000
1759592755.214,-169.434,-35.156,-19.043,-14.160,0.000
1759592755.218,207.520,-35.156,-19.531,-24.414,0.000
1759592755.222,134.277,-36.133,-21.973,-20.996,0.000
1759592755.226,-262.207,-36.133,-19.531,-1.953,0.000
1759592755.230,-268.066,-33.203,-13.184,-13.672,0.000
1759592755.234,117.676,-30.762,-16.602,-30.273,0.000
1759592755.238,224.609,-32.227,-22.461,-24.414,0.000
1759592755.241,-177.246,-32.227,-22.461,-16.602,0.000
1759592755.245,-313.477,-28.320,-20.020,-20.020,0.000
1759592755.249,5.859,-30.762,-29.297,-26.367,0.000
1759592755.253,262.207,-28.320,-26.855,-23.926,0.000
1759592755.257,-48.828,-23.438,-18.066,-17.090,0.000
1759592755.261,-319.336,-25.391,-20.020,-23.926,0.000
1759592755.265,-102.539,-29.785,-20.508,-36.621,0.000
1759592755.269,253.418,-33.691,-20.996,-36.133,0.000
1759592755.273,55.664,-33.691,-19.531,-20.020,0.000
1759592755.277,-300.781,-31.738,-20.020,-23.926,0.000
1759592755.280,-197.754,-36.133,-23.438,-36.133,0.000
1759592755.284,198.730,-36.621,-25.391,-32.227,0.000
1759592755.288,170.898,-32.227,-26.855,-32.715,0.000
1759592755.292,-237.793,-32.227,-26.367,-38.086,0.000
1759592755.296,-276.855,-35.645,-26.855,-37.109,0.000
1759592755.300,94.238,-33.203,-22.949,-35.156,0.000
1759592755.304,246.094,-28.809,-13.184,-35.156,0.000
1759592755.308,-120.605,-26.367,-11.719,-27.344,0.000
1759592755.312,-284.668,-25.391,-16.113,-15.625,0.000
1759592755.316,-2.441,-23.438,-18.555,-13.184,0.000
1759592755.320,290.039,-23.438,-18.555,-22.949,0.000
1759592755.323,0.000,-21.973,-16.602,-24.414,0.000
1759592755.327,-317.383,-27.832,-19.043,-16.602,0.000
1759592755.331,-120.605,-26.855,-20.020,-10.742,0.000
1759592755.335,255.371,-20.020,-12.207,-9.766,0.000
1759592755.339,92.773,-25.879,-7.812,-9.766,0.000
1759592755.343,-277.832,-22.949,-9.277,3.418,0.000
1759592755.347,-208.496,-20.508,-7.324,-2.930,0.000
1759592755.351,172.852,-19.531,-9.766,-18.555,0.000
1759592755.355,191.406,-21.484,-19.531,-16.113,0.000
1759592755.359,-216.797,-25.879,-15.625,-13.184,0.000
1759592755.363,-290.039,-25.391,-10.742,-10.254,0.000
1759592755.366,73.242,-23.438,-6.348,-9.766,0.000
1759592755.370,253.418,-21.973,-5.371,-9.277,0.000
1759592755.374,-115.234,-27.344,-15.625,4.883,0.000
1759592755.378,-308.594,-34.180,-13.672,1.465,0.000
1759592755.382,-30.273,-37.598,-3.418,-17.090,0.000
1759592755.386,268.066,-32.227,-2.930,-13.184,0.000
1759592755.390,4.395,-24.902,-2.441,-7.812,0.000
1759592755.394,-308.105,-23.438,-0.488,1.465,0.000
1759592755.398,-140.625,-21.484,2.441,1.953,0.000
1759592755.402,239.746,-13.184,-5.371,-13.184,0.000
1759592755.405,127.930,-8.789,-8.301,3.418,0.000
1759592755.409,-248.535,-14.648,2.441,14.648,0.000
1759592755.413,-229.980,-20.996,2.441,-0.488,0.000
1759592755.417,144.531,-21.973,-5.371,-8.301,0.000
1759592755.421,202.148,-17.578,-11.719,-7.324,0.000
1759592755.425,-195.801,-23.438,-3.418,-12.695,0.000
1759592755.429,-289.062,-26.367,-0.488,-13.184,0.000
1759592755.433,48.340,-22.461,-11.719,-11.230,0.000
1759592755.437,265.137,-25.879,-13.672,-18.066,0.000
1759592755.441,-68.359,-30.762,-9.277,-21.484,0.000
1759592755.445,-306.641,-35.645,-10.254,-13.672,0.000
1759592755.448,-64.941,-36.133,-9.277,-15.137,0.000
1759592755.452,267.090,-30.762,-3.906,-16.602,0.000
1759592755.456,44.922,-27.344,-4.395,-9.277,0.000
1759592755.460,-285.156,-29.297,-10.742,-7.812,0.000
1759592755.464,-168.945,-30.273,-12.695,-2.930,0.000
1759592755.468,210.938,-31.250,-8.789,-6.836,0.000
1759592755.472,142.090,-38.086,-4.395,-16.602,0.000
1759592755.476,-255.859,-44.434,-8.789,-7.812,0.000
1759592755.480,-258.301,-41.504,-13.672,-3.906,0.000
1759592755.484,117.676,-31.738,-7.812,-11.719,0.000
1759592755.488,219.727,-28.809,-4.883,-17.090,0.000
1759592755.491,-164.062,-33.203,-6.348,-17.090,0.000
1759592755.495,-289.062,-37.598,-8.789,-19.531,0.000
1759592755.499,23.926,-30.762,-10.254,-18.555,0.000
1759592755.503,268.555,-24.414,-9.277,-9.766,0.000
1759592755.507,-53.711,-26.367,-11.230,-4.395,0.000
1759592755.511,-308.105,-27.344,-9.766,-2.930,0.000
1759592755.515,-83.008,-26.855,-4.883,-18.066,0.000
1759592755.519,255.371,-28.320,-9.277,-25.879,0.000
1759592755.523,65.430,-34.180,-9.766,-21.973,0.000
1759592755.527,-279.785,-34.668,-6.348,-20.020,0.000
1759592755.530,-177.734,-27.344,-7.324,-18.555,0.000
1759592755.534,223.633,-25.879,-11.719,-23.926,0.000
1759592755.538,180.176,-20.996,-10.254,-21.484,0.000
1759592755.542,-234.863,-20.996,-12.207,-18.066,0.000
1759592755.546,-259.766,-18.555,-17.090,-19.043,0.000
1759592755.550,104.004,-12.207,-18.066,-22.949,0.000
1759592755.554,233.398,-15.625,-20.508,-10.254,0.000
1759592755.558,-143.555,-25.391,-19.043,-0.977,0.000
1759592755.562,-300.781,-30.273,-13.672,-19.531,0.000
1759592755.566,2.441,-25.879,-16.602,-30.273,0.000
1759592755.570,276.367,-28.320,-15.625,-27.344,0.000
1759592755.573,-33.691,-30.762,-7.324,-19.043,0.000
1759592755.577,-317.383,-25.879,-1.953,-15.137,0.000
1759592755.581,-116.211,-28.320,-6.836,-21.484,0.000
1759592755.585,250.488,-29.297,-8.301,-24.414,0.000
1759592755.589,95.703,-27.832,-5.859,-19.531,0.000
1759592755.593,-273.438,-26.367,-11.719,-16.602,0.000
1759592755.597,-198.242,-24.414,-15.137,-10.742,0.000
1759592755.601,181.641,-25.391,-15.625,-10.254,0.000
1759592755.605,181.152,-30.762,-8.301,-15.137,0.000
1759592755.609,-220.215,-31.250,-4.883,-12.695,0.000
1759592755.612,-279.297,-31.250,-11.230,-11.230,0.000
1759592755.616,71.289,-30.762,-16.113,-8.789,0.000
1759592755.620,233.398,-32.227,-17.090,-12.207,0.000
1759592755.624,-127.930,-29.785,-11.719,-19.043,0.000
1759592755.628,-310.547,-21.484,-11.719,-13.672,0.000
1759592755.632,-37.598,-26.367,-14.160,-11.230,0.000
1759592755.636,257.324,-26.855,-8.789,-24.414,0.000
1759592755.640,-2.930,-19.531,-2.930,-11.230,0.000
1759592755.644,-309.570,-22.461,-7.324,-6.348,0.000
1759592755.648,-149.902,-22.461,-8.789,-20.508,0.000
1759592755.652,227.539,-17.578,-8.789,-23.438,0.000
1759592755.655,108.887,-24.414,-14.160,-22.949,0.000
1759592755.659,-270.996,-31.738,-15.625,-11.230,0.000
1759592755.663,-239.746,-30.762,-14.160,-14.160,0.000
1759592755.667,130.859,-27.832,-12.695,-17.578,0.000
1759592755.671,169.922,-26.855,-15.137,-18.066,0.000
1759592755.675,-225.098,-30.273,-13.184,-18.066,0.000
1759592755.679,-306.152,-29.297,-6.836,-12.695,0.000
1759592755.683,21.484,-26.367,-6.836,-19.043,0.000
1759592755.687,220.215,-25.879,-12.695,-23.438,0.000
1759592755.691,-114.258,-25.391,-14.160,-12.207,0.000
1759592755.695,-328.125,-22.461,-9.277,-10.742,0.000
1759592755.698,-79.102,-23.438,-8.301,-24.414,0.000
1759592755.702,240.234,-22.949,-14.648,-15.137,0.000
1759592755.706,3.906,-19.531,-14.648,-3.418,0.000
1759592755.710,-327.637,-16.113,-13.672,-12.207,0.000
1759592755.714,-185.547,-15.137,-17.090,-13.672,0.000
1759592755.718,200.684,-20.508,-13.184,-17.578,0.000
1759592755.722,112.793,-22.949,-11.719,-15.137,0.000
1759592755.726,-275.391,-25.879,-12.695,-8.789,0.000
1759592755.730,-263.672,-31.250,-18.066,-12.695,0.000
1759592755.734,125.000,-25.391,-16.602,-13.672,0.000
1759592755.737,218.262,-23.438,-17.578,-15.137,0.000
1759592755.741,-171.875,-27.832,-21.484,-12.207,0.000
1759592755.745,-293.945,-27.832,-19.043,-12.207,0.000
1759592755.749,21.973,-24.902,-26.855,-10.742,0.000
1759592755.753,258.789,-24.414,-25.879,-12.695,0.000
1759592755.757,-70.801,-22.949,-17.090,-21.973,0.000
1759592755.761,-315.430,-24.902,-19.531,-18.555,0.000
1759592755.765,-83.496,-27.832,-21.484,-18.066,0.000
1759592755.769,248.535,-30.273,-21.973,-26.855,0.000
1759592755.773,43.457,-33.691,-20.508,-22.461,0.000
1759592755.777,-298.828,-32.227,-17.578,-6.348,0.000
1759592755.780,-201.660,-32.227,-17.578,-13.672,0.000
1759592755.784,177.734,-31.738,-21.973,-32.227,0.000
1759592755.788,140.625,-31.250,-19.531,-29.297,0.000
1759592755.792,-246.094,-32.227,-21.973,-16.113,0.000
1759592755.796,-271.484,-30.273,-22.461,-19.043,0.000
1759592755.800,96.191,-26.855,-18.066,-32.227,0.000
1759592755.804,227.539,-27.832,-21.484,-34.668,0.000
1759592755.808,-153.320,-32.715,-22.949,-23.438,0.000
1759592755.812,-306.152,-34.668,-22.949,-18.555,0.000
1759592755.816,-0.488,-31.250,-21.973,-26.855,0.000
1759592755.820,254.883,-34.668,-25.391,-40.039,0.000
1759592755.823,-51.270,-37.598,-23.438,-31.738,0.000
1759592755.827,-314.941,-32.227,-13.672,-18.555,0.000
1759592755.831,-115.723,-35.645,-13.672,-18.066,0.000
1759592755.835,233.398,-32.715,-13.672,-20.508,0.000
1759592755.839,60.059,-25.391,-13.672,-7.324,0.000
1759592755.843,-298.828,-26.855,-14.648,-0.488,0.000
1759592755.847,-212.891,-25.391,-9.766,-16.113,0.000
1759592755.851,178.711,-24.414,-9.277,-24.414,0.000
1759592755.855,170.410,-30.273,-5.371,-18.066,0.000
1759592755.859,-236.328,-27.344,4.395,-20.020,0.000
1759592755.862,-291.992,-21.484,6.348,-31.250,0.000
1759592755.866,53.711,-20.508,4.395,-40.527,0.000
1759592755.870,213.379,-26.367,11.719,-47.363,0.000
1759592755.874,-165.527,-24.902,23.926,-47.852,0.000
1759592755.878,-373.535,-26.367,26.855,-74.707,0.000
1759592755.882,-117.188,-35.156,24.902,-102.539,0.000
1759592755.886,163.086,-21.973,32.227,-106.934,0.000
1759592755.890,-121.582,-19.531,44.434,-120.605,0.000
1759592755.894,-435.059,-31.738,39.062,-145.020,0.000
1759592755.898,-273.926,-29.297,35.156,-160.156,0.000
1759592755.902,82.520,-11.230,47.852,-172.363,0.000
1759592755.905,-64.941,-11.230,65.918,-185.547,0.000
1759592755.909,-450.195,-14.160,58.594,-192.383,0.000
1759592755.913,-401.367,-7.324,50.293,-188.965,0.000
1759592755.917,-27.344,-14.648,63.965,-210.449,0.000
1759592755.921,-7.324,-18.066,60.547,-221.680,0.000
1759592755.925,-410.645,-15.137,53.223,-216.797,0.000
1759592755.929,-480.957,-22.461,44.434,-206.055,0.000
1759592755.933,-131.836,-24.414,42.969,-204.102,0.000
1759592755.937,75.195,-14.648,52.734,-208.496,0.000
1759592755.941,-274.414,-13.672,50.781,-197.266,0.000
1759592755.944,-492.188,-19.043,46.387,-182.617,0.000
1759592755.948,-220.703,-19.043,47.363,-173.828,0.000
1759592755.952,116.211,-19.043,46.387,-167.480,0.000
1759592755.956,-116.699,-25.391,42.969,-145.508,0.000
1759592755.960,-432.617,-27.344,43.457,-138.672,0.000
1759592755.964,-279.785,-30.762,42.480,-144.531,0.000
1759592755.968,104.492,-35.156,32.715,-144.043,0.000
1759592755.972,24.902,-29.297,23.926,-122.070,0.000
1759592755.976,-330.566,-25.879,31.738,-81.055,0.000
1759592755.980,-308.594,-30.273,38.574,-69.824,0.000
1759592755.984,75.684,-30.273,28.320,-71.289,0.000
1759592755.987,172.852,-29.785,22.461,-56.641,0.000
1759592755.991,-218.262,-31.250,13.672,-48.340,0.000
1759592755.995,-328.125,-37.109,9.766,-41.504,0.000
1759592755.999,15.625,-36.621,10.742,-28.320,0.000
1759592756.003,254.883,-41.016,-4.883,-28.320,0.000
1759592756.007,-73.730,-44.434,-17.578,-21.484,0.000
1759592756.011,-282.715,-43.457,-18.066,-12.695,0.000
1759592756.015,-29.297,-44.922,-24.902,-4.883,0.000
1759592756.019,276.855,-44.434,-30.762,6.836,0.000
1759592756.023,66.406,-50.293,-32.227,9.277,0.000
1759592756.027,-267.090,-51.270,-39.551,13.672,0.000
1759592756.030,-133.789,-44.434,-41.504,20.020,0.000
1759592756.034,259.277,-41.016,-44.434,29.785,0.000
1759592756.038,207.031,-36.133,-43.457,39.062,0.000
1759592756.042,-183.594,-36.621,-43.945,35.156,0.000
1759592756.046,-200.684,-35.156,-49.805,31.250,0.000
1759592756.050,164.062,-30.273,-40.039,31.250,0.000
1759592756.054,288.574,-26.367,-32.715,37.598,0.000
1759592756.058,-83.984,-12.207,-29.297,57.617,0.000
1759592756.062,-217.773,-30.273,-39.062,61.035,0.000
1759592756.066,63.477,-61.035,-44.434,29.297,0.000
1759592756.070,290.039,-27.832,-29.785,9.277,0.000
1759592756.073,-3.906,1.465,-38.574,25.879,0.000
1759592756.077,-279.297,-15.137,-28.320,39.062,0.000
1759592756.081,-103.516,-26.855,-12.695,7.812,0.000
1759592756.085,217.285,-33.203,-21.484,-38.574,0.000
1759592756.089,33.203,-30.273,-19.531,-52.246,0.000
1759592756.093,-330.566,-34.180,-11.230,-52.246,0.000
1759592756.097,-264.160,-18.066,21.484,-68.359,0.000
1759592756.101,95.703,-12.695,28.809,-111.328,0.000
1759592756.105,57.617,-35.156,7.812,-129.883,0.000
1759592756.109,-331.055,-20.996,18.066,-119.141,0.000
1759592756.112,-375.488,-15.137,23.438,-126.953,0.000
1759592756.116,-30.762,-13.184,37.109,-130.371,0.000
1759592756.120,129.395,-2.930,45.898,-126.465,0.000
1759592756.124,-245.605,-11.230,21.973,-114.746,0.000
1759592756.128,-416.016,-18.555,14.648,-110.352,0.000
1759592756.132,-113.281,-24.902,32.227,-111.328,0.000
1759592756.136,184.082,-34.180,38.086,-98.633,0.000
1759592756.140,-86.426,-35.156,32.715,-81.055,0.000
1759592756.144,-360.840,-31.250,29.785,-58.105,0.000
1759592756.148,-159.180,-29.297,26.855,-44.434,0.000
1759592756.152,221.191,-32.715,20.508,-39.062,0.000
1759592756.155,97.168,-31.738,17.090,-22.461,0.000
1759592756.159,-261.719,-29.785,10.254,-11.230,0.000
1759592756.163,-205.078,-32.227,1.953,-12.695,0.000
1759592756.167,189.453,-24.902,-2.930,-8.301,0.000
1759592756.171,226.074,-20.508,-3.906,2.441,0.000
1759592756.175,-167.480,-20.020,0.488,5.859,0.000
1759592756.179,-230.957,-21.484,-7.812,11.719,0.000
1759592756.183,140.137,-23.926,-15.625,28.809,0.000
1759592756.187,328.125,-19.531,-17.090,44.434,0.000
1759592756.191,-37.109,-23.438,-20.996,55.176,0.000
1759592756.194,-229.492,-25.879,-22.461,59.570,0.000
1759592756.198,60.059,-18.555,-25.391,63.477,0.000
1759592756.202,327.637,-14.648,-30.762,68.848,0.000
1759592756.206,55.664,-19.043,-33.691,77.148,0.000
1759592756.210,-189.941,-21.973,-33.691,81.543,0.000
1759592756.214,-34.668,-22.949,-38.574,84.961,0.000
1759592756.218,334.473,-28.320,-40.039,80.078,0.000
1759592756.222,236.816,-31.738,-36.621,77.637,0.000
1759592756.226,-147.949,-31.250,-37.598,86.426,0.000
1759592756.230,-137.207,-29.785,-37.109,89.355,0.000
1759592756.234,248.047,-22.949,-34.668,78.613,0.000
1759592756.237,320.801,-19.531,-36.133,79.590,0.000
1759592756.241,-77.148,-24.902,-43.945,84.961,0.000
1759592756.245,-185.547,-24.902,-50.781,70.801,0.000
1759592756.249,144.043,-22.461,-51.270,65.430,0.000
1759592756.253,361.328,-27.344,-53.711,59.082,0.000
1759592756.257,31.738,-28.320,-54.199,60.059,0.000
1759592756.261,-197.754,-26.855,-51.270,69.336,0.000
1759592756.265,38.086,-27.832,-40.527,56.641,0.000
1759592756.269,358.398,-25.879,-41.992,44.922,0.000
1759592756.273,134.277,-27.344,-46.875,55.176,0.000
1759592756.277,-192.871,-30.762,-41.504,60.547,0.000
1759592756.280,-70.312,-32.227,-39.551,57.129,0.000
1759592756.284,291.016,-35.645,-45.410,51.758,0.000
1759592756.288,214.844,-40.039,-45.898,51.270,0.000
1759592756.292,-172.852,-34.668,-40.039,55.176,0.000
1759592756.296,-179.199,-30.273,-42.480,48.340,0.000
1759592756.300,188.477,-30.273,-43.945,41.016,0.000
1759592756.304,291.016,-30.273,-43.945,53.711,0.000
1759592756.308,-97.168,-33.203,-37.109,56.641,0.000
1759592756.312,-242.676,-36.621,-30.762,37.598,0.000
1759592756.316,65.430,-35.156,-34.668,31.250,0.000
1759592756.319,313.965,-27.832,-30.762,26.367,0.000
1759592756.323,0.488,-27.832,-26.367,31.250,0.000
1759592756.327,-255.859,-30.762,-25.391,41.016,0.000
1759592756.331,-48.828,-31.250,-31.738,30.762,0.000
1759592756.335,291.016,-32.227,-38.086,19.043,0.000
1759592756.339,106.445,-29.297,-31.738,21.484,0.000
1759592756.343,-244.629,-25.391,-27.832,26.367,0.000
1759592756.347,-149.902,-28.809,-37.598,21.484,0.000
1759592756.351,229.004,-28.320,-37.109,19.043,0.000
1759592756.355,210.449,-21.973,-23.926,13.184,0.000
1759592756.359,-189.941,-19.531,-20.020,14.160,0.000
1759592756.362,-244.141,-20.020,-24.902,18.555,0.000
1759592756.366,118.164,-24.414,-21.484,14.160,0.000
1759592756.370,267.578,-25.879,-14.160,13.672,0.000
1759592756.374,-105.957,-24.414,-15.137,21.973,0.000
1759592756.378,-275.391,-26.367,-12.207,24.414,0.000
1759592756.382,16.113,-21.973,-13.184,13.672,0.000
1759592756.386,286.133,-22.461,-20.020,0.977,0.000
1759592756.390,-3.418,-25.391,-20.020,0.488,0.000
1759592756.394,-283.691,-26.367,-26.367,7.812,0.000
1759592756.398,-93.750,-33.203,-24.414,1.953,0.000
1759592756.402,264.648,-28.320,-19.043,-11.230,0.000
1759592756.405,103.516,-21.484,-23.926,-5.371,0.000
1759592756.409,-257.324,-22.949,-20.996,5.371,0.000
1759592756.413,-185.547,-20.996,-12.695,4.395,0.000
1759592756.417,193.359,-25.391,-15.625,-0.488,0.000
1759592756.421,208.496,-24.414,-18.555,5.859,0.000
1759592756.425,-185.547,-26.367,-13.184,4.883,0.000
1759592756.429,-247.559,-32.227,-11.719,-0.977,0.000
1759592756.433,98.633,-32.715,-13.672,-14.160,0.000
1759592756.437,271.973,-32.227,-17.578,-14.648,0.000
1759592756.441,-80.566,-28.809,-18.066,5.371,0.000
1759592756.444,-275.391,-30.762,-12.695,12.695,0.000
1759592756.448,-5.859,-28.809,-17.578,-1.465,0.000
1759592756.452,292.480,-24.414,-21.973,-8.789,0.000
1759592756.456,29.785,-30.762,-14.648,-1.953,0.000
1759592756.460,-281.738,-32.227,-9.277,-7.812,0.000
1759592756.464,-125.488,-20.996,-8.789,-9.766,0.000
1759592756.468,243.164,-22.949,-7.812,-8.301,0.000
1759592756.472,133.301,-28.809,-7.324,0.000,0.000
1759592756.476,-237.793,-26.367,-10.254,5.371,0.000
1759592756.480,-212.891,-28.809,-13.184,-2.930,0.000
1759592756.484,160.645,-26.855,-14.160,-8.301,0.000
1759592756.487,212.891,-29.785,-11.719,-5.859,0.000
1759592756.491,-192.871,-35.645,-12.207,-8.789,0.000
1759592756.495,-282.227,-35.156,-9.766,-15.625,0.000
1759592756.499,52.734,-29.785,-18.555,-8.789,0.000
1759592756.503,256.348,-30.762,-23.438,-13.672,0.000
1759592756.507,-79.102,-33.203,-12.695,-17.578,0.000
1759592756.511,-308.594,-28.320,-14.648,-16.602,0.000
1759592756.515,-66.406,-25.391,-16.113,-25.391,0.000
1759592756.519,254.883,-26.855,-10.742,-20.508,0.000
1759592756.523,40.039,-28.320,-3.906,-9.766,0.000
1759592756.527,-279.785,-30.762,-2.930,-6.348,0.000
1759592756.530,-155.762,-28.320,-10.254,-13.672,0.000
1759592756.534,222.656,-30.762,-11.719,-22.461,0.000
1759592756.538,146.484,-38.086,-8.789,-20.508,0.000
1759592756.542,-243.164,-31.738,-10.742,-11.230,0.000
1759592756.546,-249.023,-27.832,-14.160,-8.301,0.000
1759592756.550,127.930,-27.832,-9.277,-13.672,0.000
1759592756.554,231.445,-25.879,-3.418,-20.020,0.000
1759592756.558,-158.203,-30.273,-10.742,-12.695,0.000
1759592756.562,-286.133,-31.250,-11.719,-11.719,0.000
1759592756.566,28.320,-29.297,-2.441,-20.020,0.000
1759592756.569,265.137,-25.391,0.000,-22.461,0.000
1759592756.573,-54.688,-22.949,-0.488,-17.578,0.000
1759592756.577,-309.570,-25.391,-2.441,-16.602,0.000
1759592756.581,-86.426,-29.785,-8.301,-23.438,0.000
1759592756.585,256.836,-25.391,-13.672,-23.926,0.000
1759592756.589,64.453,-19.043,-13.672,-8.301,0.000
1759592756.593,-279.785,-17.090,-12.207,4.395,0.000
1759592756.597,-184.570,-20.996,-7.324,-15.625,0.000
1759592756.601,200.684,-26.367,-10.742,-25.391,0.000
1759592756.605,168.457,-23.438,-18.066,-13.184,0.000
1759592756.609,-229.004,-25.879,-13.672,-20.996,0.000
1759592756.612,-266.602,-32.715,-7.812,-25.879,0.000
1759592756.616,96.680,-30.273,-5.371,-27.832,0.000
1759592756.620,231.934,-28.320,-8.789,-28.809,0.000
1759592756.624,-147.461,-33.691,-8.789,-13.184,0.000
1759592756.628,-308.594,-36.621,-9.277,-17.090,0.000
1759592756.632,-0.977,-30.762,-12.207,-21.973,0.000
1759592756.636,276.855,-26.855,-11.230,-10.742,0.000
1759592756.640,-30.273,-27.832,-3.418,-13.184,0.000
1759592756.644,-307.129,-25.391,-3.418,-12.207,0.000
1759592756.648,-106.934,-28.809,-13.672,-16.602,0.000
1759592756.651,246.094,-30.273,-9.766,-27.344,0.000
1759592756.655,88.867,-27.832,-3.906,-16.602,0.000
1759592756.659,-266.602,-26.855,-6.836,-8.789,0.000
1759592756.663,-199.707,-26.855,-5.371,-14.648,0.000
1759592756.667,187.500,-27.344,-2.441,-19.043,0.000
1759592756.671,195.801,-26.367,-5.859,-8.789,0.000
1759592756.675,-209.961,-29.297,-11.230,1.465,0.000
1759592756.679,-275.879,-30.762,-14.160,0.488,0.000
1759592756.683,75.195,-27.832,-11.230,-7.324,0.000
1759592756.687,250.977,-26.855,-8.789,-11.719,0.000
1759592756.691,-102.051,-27.344,-11.230,2.930,0.000
1759592756.694,-285.156,-26.855,-8.301,5.859,0.000
1759592756.698,-16.602,-27.832,-6.348,-9.277,0.000
1759592756.702,274.902,-25.879,-10.742,-13.672,0.000
1759592756.706,1.465,-24.902,-14.160,-7.812,0.000
1759592756.710,-303.711,-32.227,-10.742,0.000,0.000
1759592756.714,-135.254,-37.109,-8.789,-8.789,0.000
1759592756.718,209.961,-35.156,-12.207,-17.578,0.000
1759592756.722,82.031,-33.691,-14.160,-7.812,0.000
1759592756.726,-273.926,-31.250,-10.254,-1.465,0.000
1759592756.730,-239.258,-29.297,-4.883,-4.883,0.000
1759592756.734,150.391,-25.879,-5.371,-12.695,0.000
1759592756.737,205.078,-22.949,-9.277,-13.672,0.000
1759592756.741,-190.430,-25.391,-7.324,-6.348,0.000
1759592756.745,-279.785,-34.668,-3.906,-4.883,0.000
1759592756.749,73.730,-31.738,-3.418,-13.672,0.000
1759592756.753,266.113,-26.855,-6.836,-19.531,0.000
1759592756.757,-100.586,-32.227,-8.301,-14.648,0.000
1759592756.761,-311.035,-32.715,-5.859,-6.836,0.000
1759592756.765,-52.734,-27.344,-6.836,-11.719,0.000
1759592756.769,262.207,-28.320,-14.648,-19.531,0.000
1759592756.773,24.414,-29.297,-12.207,-15.625,0.000
1759592756.776,-291.992,-26.367,-4.883,-7.812,0.000
1759592756.780,-152.344,-24.902,-9.766,-1.465,0.000
1759592756.784,229.004,-23.926,-10.254,-2.441,0.000
1759592756.788,147.461,-20.508,-3.906,-3.906,0.000
1759592756.792,-248.047,-20.996,-2.441,-5.371,0.000
1759592756.796,-241.211,-28.320,-8.789,-13.672,0.000
1759592756.800,137.695,-33.203,-17.090,-19.531,0.000
1759592756.804,219.727,-31.250,-14.160,-20.508,0.000
1759592756.808,-172.363,-31.738,-3.418,-12.207,0.000
1759592756.812,-295.410,-33.203,-6.836,-11.719,0.000
1759592756.816,22.461,-28.320,-18.066,-19.043,0.000
1759592756.819,257.812,-25.391,-14.648,-20.508,0.000
1759592756.823,-62.988,-24.902,-7.324,-16.602,0.000
1759592756.827,-309.570,-24.414,-7.812,-8.301,0.000
1759592756.831,-84.473,-27.344,-9.766,-7.324,0.000
1759592756.835,256.836,-20.996,-0.977,-13.184,0.000
1759592756.839,60.059,-14.648,5.859,-4.395,0.000
1759592756.843,-271.973,-21.484,4.883,-0.977,0.000
1759592756.847,-167.969,-25.391,-1.465,-12.207,0.000
1759592756.851,192.871,-25.391,-7.812,-25.391,0.000
1759592756.855,141.602,-25.879,-3.906,-25.879,0.000
1759592756.859,-242.676,-28.809,-6.348,-16.113,0.000
1759592756.862,-262.207,-30.273,-9.766,-9.277,0.000
1759592756.866,105.469,-28.809,-6.836,-12.207,0.000
1759592756.870,241.699,-20.508,-4.395,-12.207,0.000
1759592756.874,-136.230,-19.531,-10.254,-3.418,0.000
1759592756.878,-293.457,-27.344,-7.324,-9.277,0.000
1759592756.882,4.395,-18.555,0.488,-23.438,0.000
1759592756.886,262.695,-17.090,-5.859,-22.949,0.000
1759592756.890,-41.992,-26.367,-5.859,-14.648,0.000
1759592756.894,-318.359,-29.785,-8.301,-17.090,0.000
1759592756.898,-109.863,-25.391,-7.324,-22.461,0.000
1759592756.901,252.441,-21.973,-0.977,-20.508,0.000
1759592756.905,83.496,-25.391,-6.348,-22.949,0.000
1759592756.909,-269.531,-24.414,-10.742,-13.672,0.000
1759592756.913,-199.219,-22.949,-2.441,-10.254,0.000
1759592756.917,173.828,-25.879,-2.930,-16.113,0.000
1759592756.921,173.340,-32.227,-7.812,-9.277,0.000
1759592756.925,-225.098,-32.227,-2.930,-13.184,0.000
1759592756.929,-274.414,-26.855,-1.953,-20.996,0.000
1759592756.933,80.078,-29.785,-1.953,-19.531,0.000
1759592756.937,243.652,-28.320,-4.883,-17.578,0.000
1759592756.941,-120.605,-23.438,-7.324,-12.695,0.000
1759592756.944,-301.758,-23.926,-10.742,-21.973,0.000
1759592756.948,-20.020,-24.902,-18.066,-29.785,0.000
1759592756.952,254.395,-24.414,-11.719,-25.879,0.000
1759592756.956,-24.902,-33.691,-10.254,-23.438,0.000
1759592756.960,-316.895,-34.668,-14.160,-25.391,0.000
1759592756.964,-137.207,-30.762,-12.695,-13.672,0.000
1759592756.968,229.980,-27.832,-7.324,-10.742,0.000
1759592756.972,96.680,-20.996,0.977,-16.113,0.000
1759592756.976,-271.484,-23.438,-2.930,-18.066,0.000
1759592756.980,-234.375,-28.320,-14.648,-31.738,0.000
1759592756.984,143.555,-32.715,-18.066,-41.504,0.000
1759592756.987,187.988,-30.762,-15.625,-37.109,0.000
1759592756.991,-206.055,-30.273,-11.230,-27.832,0.000
1759592756.995,-287.109,-24.902,-6.348,-21.484,0.000
1759592756.999,55.176,-23.438,-3.418,-23.438,0.000
1759592757.003,243.652,-31.250,-10.742,-28.320,0.000
1759592757.007,-107.910,-33.691,-19.531,-24.902,0.000
1759592757.011,-308.594,-33.203,-14.648,-18.066,0.000
1759592757.015,-52.734,-29.297,-5.859,-27.832,0.000
1759592757.019,247.559,-26.855,-8.789,-43.945,0.000
1759592757.023,3.418,-24.902,-14.160,-32.227,0.000
1759592757.026,-315.430,-27.832,-12.207,-20.020,0.000
1759592757.030,-161.621,-35.645,-10.742,-20.508,0.000
1759592757.034,215.332,-30.762,-8.789,-26.855,0.000
1759592757.038,114.258,-26.855,-7.324,-27.832,0.000
1759592757.042,-266.113,-38.086,-4.395,-16.602,0.000
1759592757.046,-248.535,-37.598,-6.348,-19.043,0.000
1759592757.050,132.812,-24.414,-8.789,-29.297,0.000
1759592757.054,211.426,-21.973,-7.812,-26.855,0.000
1759592757.058,-172.363,-27.832,-8.789,-19.043,0.000
1759592757.062,-274.902,-29.297,-8.301,-18.555,0.000
1759592757.066,44.434,-32.715,-9.766,-17.578,0.000
1759592757.069,265.137,-33.691,-6.836,-24.902,0.000
1759592757.073,-58.105,-31.738,-5.859,-21.484,0.000
1759592757.077,-289.062,-27.832,-4.395,-14.648,0.000
1759592757.081,-60.059,-24.414,-8.789,-28.320,0.000
1759592757.085,268.555,-21.973,-14.648,-32.715,0.000
1759592757.089,58.105,-25.879,-7.812,-25.391,0.000
1759592757.093,-274.414,-23.438,-3.418,-27.832,0.000
1759592757.097,-163.086,-17.090,-6.348,-27.344,0.000
1759592757.101,212.891,-16.602,-10.742,-25.391,0.000
1759592757.105,166.992,-20.508,-8.301,-22.461,0.000
1759592757.108,-219.238,-27.832,-3.418,-20.020,0.000
1759592757.112,-241.699,-28.320,-5.859,-26.367,0.000
1759592757.116,122.070,-24.902,-4.395,-33.691,0.000
1759592757.120,232.422,-24.902,-0.488,-40.039,0.000
1759592757.124,-143.555,-28.320,-1.465,-26.855,0.000
1759592757.128,-286.133,-27.832,-4.395,-18.555,0.000
1759592757.132,16.113,-24.414,-5.859,-27.344,0.000
1759592757.136,274.414,-27.344,-6.836,-29.785,0.000
1759592757.140,-32.715,-29.785,-8.789,-29.297,0.000
1759592757.144,-287.598,-24.902,0.000,-24.902,0.000
1759592757.148,-88.867,-24.414,0.977,-40.039,0.000
1759592757.151,245.605,-35.156,13.184,-61.035,0.000
1759592757.155,62.012,-32.227,19.531,-58.105,0.000
1759592757.159,-302.734,-20.020,10.742,-52.734,0.000
1759592757.163,-222.168,-16.113,27.344,-75.195,0.000
1759592757.167,145.996,-15.137,39.062,-106.445,0.000
1759592757.171,103.516,-23.438,32.715,-115.723,0.000
1759592757.175,-311.523,-31.738,34.180,-130.859,0.000
1759592757.179,-358.398,-24.414,59.082,-142.090,0.000
1759592757.183,-23.438,-11.230,78.613,-168.457,0.000
1759592757.187,83.008,-14.160,60.059,-200.684,0.000
1759592757.191,-305.176,-20.996,49.805,-202.148,0.000
1759592757.194,-490.234,-18.555,64.941,-209.961,0.000
1759592757.198,-214.355,-16.113,70.312,-226.074,0.000
1759592757.202,61.035,-12.695,72.754,-225.586,0.000
1759592757.206,-211.426,-13.672,69.336,-217.773,0.000
1759592757.210,-491.211,-10.254,70.801,-213.867,0.000
1759592757.214,-302.734,-9.277,69.824,-209.473,0.000
1759592757.218,61.523,-13.672,56.152,-209.473,0.000
1759592757.222,-85.449,-6.836,60.547,-196.777,0.000
1759592757.226,-442.871,-1.465,69.824,-172.363,0.000
1759592757.230,-375.488,-8.789,54.199,-169.922,0.000
1759592757.233,4.883,-17.578,45.410,-170.410,0.000
1759592757.237,40.527,-16.602,50.781,-148.438,0.000
1759592757.241,-326.172,-19.043,56.152,-130.371,0.000
1759592757.245,-382.324,-24.902,57.129,-123.047,0.000
1759592757.249,-21.484,-26.367,41.992,-101.562,0.000
1759592757.253,179.199,-31.250,38.086,-83.008,0.000
1759592757.257,-160.156,-39.062,38.574,-78.613,0.000
1759592757.261,-355.957,-41.016,22.949,-67.383,0.000
1759592757.265,-76.172,-32.715,20.508,-54.688,0.000
1759592757.269,239.258,-35.645,21.484,-48.828,0.000
1759592757.273,-2.930,-42.480,11.719,-33.691,0.000
1759592757.276,-295.898,-41.016,4.395,-7.324,0.000
1759592757.280,-122.559,-39.551,-0.488,5.859,0.000
1759592757.284,263.184,-37.109,-7.812,15.137,0.000
1759592757.288,165.039,-32.227,-12.695,29.785,0.000
1759592757.292,-212.891,-36.133,-18.555,34.668,0.000
1759592757.296,-177.734,-39.062,-28.320,45.898,0.000
1759592757.300,209.473,-34.668,-25.391,39.551,0.000
1759592757.304,281.250,-33.691,-21.973,34.668,0.000
1759592757.308,-106.934,-39.551,-26.855,48.340,0.000
1759592757.312,-213.379,-39.551,-28.809,37.109,0.000
1759592757.316,123.047,-33.203,-18.066,34.180,0.000
1759592757.319,342.773,-18.555,-7.812,43.457,0.000
1759592757.323,14.160,-18.555,-19.043,49.805,0.000
1759592757.327,-216.309,-17.578,-22.949,50.293,0.000
1759592757.331,6.348,-24.414,-25.391,26.367,0.000
1759592757.335,306.641,-39.062,-9.766,1.953,0.000
1759592757.339,64.453,-2.441,10.742,0.000,0.000
1759592757.343,-278.809,3.418,7.812,-4.883,0.000
1759592757.347,-177.734,-48.340,2.441,-32.715,0.000
1759592757.351,176.758,-54.199,8.789,-68.848,0.000
1759592757.355,82.520,-20.996,30.273,-93.750,0.000
1759592757.358,-302.734,-23.438,31.738,-92.773,0.000
1759592757.362,-310.547,-31.738,15.625,-98.145,0.000
1759592757.366,44.922,-19.043,19.043,-112.305,0.000
1759592757.370,151.855,-3.418,25.879,-117.676,0.000
1759592757.374,-266.113,-21.973,9.277,-126.465,0.000
1759592757.378,-416.504,-37.109,4.883,-123.047,0.000
1759592757.382,-98.145,-22.461,23.438,-127.441,0.000
1759592757.386,156.250,-14.648,22.949,-139.648,0.000
1759592757.390,-125.488,-20.508,26.855,-116.211,0.000
1759592757.394,-374.023,-21.973,28.809,-91.797,0.000
1759592757.398,-176.270,-15.625,14.160,-94.238,0.000
1759592757.401,184.570,-16.602,21.973,-95.215,0.000
1759592757.405,28.320,-21.484,27.832,-83.496,0.000
1759592757.409,-305.664,-24.902,28.320,-72.754,0.000
1759592757.413,-223.145,-29.297,20.996,-57.617,0.000
1759592757.417,152.832,-28.320,13.672,-59.570,0.000
1759592757.421,150.879,-30.762,9.766,-53.711,0.000
1759592757.425,-216.797,-41.016,1.953,-26.367,0.000
1759592757.429,-241.211,-42.480,3.906,-4.395,0.000
1759592757.433,125.000,-37.598,2.441,-3.906,0.000
1759592757.437,274.414,-33.203,2.441,-10.254,0.000
1759592757.441,-89.355,-34.668,-5.371,-0.977,0.000
1759592757.444,-241.699,-41.016,-11.719,6.836,0.000
1759592757.448,55.176,-36.621,-10.742,8.789,0.000
1759592757.452,328.613,-27.344,-11.230,8.301,0.000
1759592757.456,51.270,-27.832,-16.602,22.949,0.000
1759592757.460,-211.914,-27.832,-24.414,43.945,0.000
1759592757.464,-29.297,-28.809,-25.879,49.805,0.000
1759592757.468,331.055,-28.320,-23.926,54.688,0.000
1759592757.472,212.891,-27.832,-27.832,71.289,0.000
1759592757.476,-139.648,-26.367,-28.320,84.473,0.000
1759592757.480,-87.402,-24.902,-20.020,85.938,0.000
1759592757.483,287.109,-28.809,-21.484,69.824,0.000
1759592757.487,304.199,-25.879,-30.273,73.242,0.000
1759592757.491,-83.008,-20.996,-33.203,91.797,0.000
1759592757.495,-149.414,-16.113,-32.227,85.938,0.000
1759592757.499,194.336,-16.602,-40.527,79.590,0.000
1759592757.503,377.441,-16.602,-51.758,88.867,0.000
1759592757.507,21.973,-13.672,-46.875,106.445,0.000
1759592757.511,-170.898,-16.113,-43.457,110.840,0.000
1759592757.515,96.680,-19.531,-49.805,94.727,0.000
1759592757.519,386.719,-28.320,-48.340,91.797,0.000
1759592757.523,122.559,-38.086,-41.504,95.703,0.000
1759592757.526,-188.965,-38.086,-36.621,88.867,0.000
1759592757.530,-32.715,-34.180,-35.645,83.008,0.000
1759592757.534,332.031,-27.832,-38.574,77.148,0.000
1759592757.538,215.332,-19.531,-41.016,74.219,0.000
1759592757.542,-158.691,-16.602,-42.969,67.871,0.000
1759592757.546,-123.535,-15.625,-51.758,63.477,0.000
1759592757.550,247.070,-15.625,-53.711,63.965,0.000
1759592757.554,298.828,-18.066,-49.805,57.617,0.000
1759592757.558,-86.914,-20.996,-43.945,65.430,0.000
1759592757.562,-171.875,-22.949,-37.598,73.242,0.000
1759592757.566,149.414,-28.809,-37.598,67.383,0.000
1759592757.569,348.633,-29.785,-36.621,61.523,0.000
1759592757.573,16.602,-28.320,-28.809,60.547,0.000
1759592757.577,-212.891,-30.762,-31.738,66.895,0.000
1759592757.581,17.090,-27.832,-36.133,60.547,0.000
1759592757.585,333.496,-18.066,-31.738,41.504,0.000
1759592757.589,104.004,-18.555,-33.691,39.062,0.000
1759592757.593,-229.492,-25.391,-36.621,47.852,0.000
1759592757.597,-98.145,-23.438,-36.621,46.387,0.000
1759592757.601,272.949,-22.949,-28.320,32.227,0.000
1759592757.605,194.336,-23.926,-23.926,35.156,0.000
1759592757.608,-182.617,-27.344,-22.949,48.828,0.000
1759592757.612,-179.688,-34.180,-24.414,42.969,0.000
1759592757.616,180.176,-38.086,-22.461,22.461,0.000
1759592757.620,270.996,-37.109,-16.113,19.043,0.000
1759592757.624,-108.398,-31.738,-18.066,34.180,0.000
1759592757.628,-233.887,-26.855,-14.648,35.156,0.000
1759592757.632,73.730,-32.227,-6.836,19.531,0.000
1759592757.636,306.641,-36.621,-16.602,11.719,0.000
1759592757.640,-13.184,-28.809,-20.020,16.602,0.000
1759592757.644,-256.836,-25.391,-13.672,22.461,0.000
1759592757.648,-31.738,-23.926,-12.207,16.602,0.000
1759592757.651,292.969,-19.531,-13.184,5.371,0.000
1759592757.655,81.543,-28.320,-20.508,2.930,0.000
1759592757.659,-260.742,-30.762,-21.484,4.395,0.000
1759592757.663,-162.598,-30.273,-16.602,-8.789,0.000
1759592757.667,210.449,-32.227,-24.414,-16.113,0.000
1759592757.671,176.270,-31.250,-24.902,4.883,0.000
1759592757.675,-206.543,-36.621,-13.672,12.207,0.000
1759592757.679,-231.934,-41.016,-15.625,4.883,0.000
1759592757.683,125.977,-34.668,-18.066,5.371,0.000
1759592757.687,263.184,-31.250,-11.719,4.883,0.000
1759592757.691,-106.934,-31.738,-8.789,10.254,0.000
1759592757.694,-267.090,-25.879,-16.602,15.625,0.000
1759592757.698,24.414,-27.344,-20.996,4.395,0.000
1759592757.702,291.992,-28.320,-19.531,-4.883,0.000
1759592757.706,-1.465,-29.785,-18.555,6.836,0.000
1759592757.710,-276.855,-34.668,-11.719,13.184,0.000
1759592757.714,-80.078,-31.738,-9.766,13.184,0.000
1759592757.718,264.160,-30.273,-13.672,5.859,0.000
1759592757.722,117.188,-35.156,-7.324,-1.953,0.000
1759592757.726,-241.699,-35.645,-3.418,2.930,0.000
1759592757.730,-149.902,-26.367,-6.348,0.977,0.000
1759592757.733,241.699,-27.832,-7.324,-7.812,0.000
1759592757.737,200.684,-29.297,-8.789,-6.348,0.000
1759592757.741,-187.500,-24.902,-11.719,0.977,0.000
1759592757.745,-236.328,-27.832,-12.695,10.254,0.000
1759592757.749,104.980,-30.273,-15.625,5.371,0.000
1759592757.753,259.277,-25.391,-19.531,-12.695,0.000
1759592757.757,-105.469,-26.855,-20.508,-13.184,0.000
1759592757.761,-291.504,-27.832,-21.484,-6.836,0.000
1759592757.765,-10.254,-22.949,-14.160,-17.578,0.000
1759592757.769,276.855,-20.508,-14.648,-28.320,0.000
1759592757.773,3.418,-25.391,-19.043,-18.066,0.000
1759592757.776,-285.156,-25.391,-15.625,-5.371,0.000
1759592757.780,-108.887,-21.973,-13.184,-9.277,0.000
1759592757.784,253.906,-20.020,-15.137,-9.766,0.000
1759592757.788,114.746,-20.996,-12.207,-7.812,0.000
1759592757.792,-257.324,-25.879,-6.836,-14.160,0.000
1759592757.796,-216.309,-29.297,0.977,-20.508,0.000
1759592757.800,158.203,-28.809,2.930,-28.320,0.000
1759592757.804,200.195,-27.344,-1.465,-19.043,0.000
1759592757.808,-177.734,-26.367,2.930,-6.836,0.000
1759592757.812,-262.695,-29.785,3.418,-16.113,0.000
1759592757.815,63.965,-29.785,1.465,-24.414,0.000
1759592757.819,261.719,-28.809,-0.977,-36.621,0.000
1759592757.823,-83.496,-29.785,-4.395,-33.691,0.000
1759592757.827,-288.574,-30.762,-0.977,-22.949,0.000
1759592757.831,-42.480,-29.297,-4.395,-28.809,0.000
1759592757.835,268.066,-23.438,-11.230,-30.762,0.000
1759592757.839,39.062,-21.484,-7.324,-20.020,0.000
1759592757.843,-282.715,-21.484,-0.977,-5.371,0.000
1759592757.847,-136.719,-27.832,-3.418,1.465,0.000
1759592757.851,236.328,-32.227,-2.930,-4.395,0.000
1759592757.855,144.043,-33.691,4.395,-8.789,0.000
1759592757.858,-233.398,-32.227,8.789,-3.906,0.000
1759592757.862,-219.727,-28.809,5.371,6.836,0.000
1759592757.866,155.762,-27.832,0.977,1.465,0.000
1759592757.870,241.211,-22.949,-0.488,-15.625,0.000
1759592757.874,-146.484,-21.484,-7.812,-8.301,0.000
1759592757.878,-266.113,-25.391,-13.672,-2.441,0.000
1759592757.882,44.922,-35.156,-12.695,-20.508,0.000
1759592757.886,265.625,-30.762,-9.766,-29.297,0.000
1759592757.890,-54.199,-27.344,-5.859,-16.602,0.000
1759592757.894,-295.410,-33.203,-12.695,-6.348,0.000
1759592757.898,-68.359,-35.645,-17.578,-17.090,0.000
1759592757.901,268.066,-32.227,-6.836,-24.902,0.000
1759592757.905,59.082,-27.344,-9.766,-20.020,0.000
1759592757.909,-279.297,-22.949,-15.137,-14.160,0.000
1759592757.913,-166.992,-22.949,-10.742,-20.020,0.000
1759592757.917,203.613,-21.484,-5.859,-29.785,0.000
1759592757.921,159.668,-24.414,-7.324,-27.344,0.000
1759592757.925,-225.098,-29.785,-15.625,-32.227,0.000
1759592757.929,-258.301,-32.715,-15.625,-34.668,0.000
1759592757.933,99.121,-33.203,-12.207,-30.762,0.000
1759592757.937,232.422,-21.973,-11.230,-27.832,0.000
1759592757.940,-133.301,-18.066,-11.719,-11.719,0.000
1759592757.944,-281.738,-20.996,-11.230,-11.719,0.000
1759592757.948,14.648,-24.414,-9.277,-29.297,0.000
1759592757.952,267.090,-25.391,-13.184,-23.438,0.000
1759592757.956,-32.227,-27.832,-12.695,-3.418,0.000
1759592757.960,-297.852,-31.250,-2.930,-14.648,0.000
1759592757.964,-96.680,-29.785,-3.418,-18.066,0.000
1759592757.968,252.930,-35.645,-6.348,-18.555,0.000
1759592757.972,94.238,-36.621,-6.348,-22.949,0.000
1759592757.976,-256.348,-25.391,-6.836,-18.066,0.000
1759592757.980,-179.199,-24.414,-8.301,-18.066,0.000
1759592757.983,208.496,-32.227,-12.695,-22.949,0.000
1759592757.987,202.148,-32.227,-15.625,-24.902,0.000
1759592757.991,-209.961,-35.156,-8.301,-20.020,0.000
1759592757.995,-229.004,-36.621,-7.812,-15.625,0.000
1759592757.999,133.301,-39.551,-15.625,-14.160,0.000
1759592758.003,239.258,-39.062,-10.742,-22.949,0.000
1759592758.007,-119.629,-33.691,-3.418,-21.484,0.000
1759592758.011,-274.414,-33.203,-7.812,-11.230,0.000
1759592758.015,1.953,-30.762,-9.277,-18.555,0.000
1759592758.019,261.719,-28.809,-5.859,-25.879,0.000
1759592758.023,-14.160,-28.320,-7.324,-20.996,0.000
1759592758.026,-305.176,-30.273,-10.742,-10.254,0.000
1759592758.030,-114.258,-34.180,-6.836,-6.836,0.000
1759592758.034,255.859,-33.691,-13.672,-17.090,0.000
1759592758.038,100.098,-29.785,-16.602,-17.090,0.000
1759592758.042,-234.863,-26.855,-2.441,-4.883,0.000
1759592758.046,-172.852,-26.855,0.977,4.883,0.000
1759592758.050,161.133,-23.438,-2.441,-8.301,0.000
1759592758.054,189.453,-28.320,-6.348,-10.742,0.000
1759592758.058,-184.570,-33.691,-4.883,1.953,0.000
1759592758.062,-259.766,-30.762,-5.859,2.930,0.000
1759592758.065,79.590,-25.391,-6.348,-1.465,0.000
1759592758.069,279.785,-20.996,-2.930,-9.766,0.000
1759592758.073,-64.941,-25.879,-6.348,-9.277,0.000
1759592758.077,-272.461,-31.738,-10.254,-3.906,0.000
1759592758.081,1.465,-29.297,-9.766,-5.859,0.000
1759592758.085,302.246,-25.879,-9.277,-10.742,0.000
1759592758.089,40.039,-29.297,-13.672,3.906,0.000
1759592758.093,-272.949,-29.297,-14.160,13.672,0.000
1759592758.097,-120.605,-26.855,-4.883,4.883,0.000
1759592758.101,252.930,-27.344,-6.348,4.395,0.000
1759592758.105,160.156,-30.273,-9.766,6.348,0.000
1759592758.108,-211.426,-26.367,-4.395,0.000,0.000
1759592758.112,-188.477,-26.367,-2.930,-0.488,0.000
1759592758.116,185.547,-23.438,-8.301,-4.395,0.000
1759592758.120,250.488,-23.438,-8.789,-12.695,0.000
1759592758.124,-133.789,-28.320,-5.371,-6.836,0.000
1759592758.128,-244.141,-21.973,-7.812,-7.812,0.000
1759592758.132,78.613,-19.531,-7.812,-15.625,0.000
1759592758.136,303.223,-21.484,-11.719,-9.277,0.000
1759592758.140,-44.434,-24.902,-10.742,-7.812,0.000
1759592758.144,-277.832,-25.879,-11.230,-11.719,0.000
1759592758.148,-50.293,-24.902,-16.113,-18.555,0.000
1759592758.151,276.367,-26.855,-12.207,-19.043,0.000
1759592758.155,76.172,-24.902,-6.348,-12.695,0.000
1759592758.159,-261.230,-25.391,-10.742,-10.254,0.000
1759592758.163,-153.320,-23.438,-14.648,-12.207,0.000
1759592758.167,215.820,-26.855,-13.184,-21.484,0.000
1759592758.171,159.668,-29.785,-13.672,-23.438,0.000
1759592758.175,-219.238,-28.809,-15.137,-13.184,0.000
1759592758.179,-236.328,-28.809,-16.113,-1.953,0.000
1759592758.183,109.863,-24.414,-12.207,-9.766,0.000
1759592758.187,220.215,-26.367,-9.766,-25.391,0.000
1759592758.190,-150.391,-26.855,-12.207,-16.602,0.000
1759592758.194,-291.992,-30.762,-8.301,-12.695,0.000
1759592758.198,11.719,-30.762,-3.418,-7.812,0.000
1759592758.202,264.648,-25.391,-3.418,-6.348,0.000
1759592758.206,-22.461,-20.996,-4.883,-7.812,0.000
1759592758.210,-270.508,-22.949,-3.418,-5.371,0.000
1759592758.214,-80.566,-20.020,-2.441,-7.812,0.000
1759592758.218,251.953,-19.043,-6.836,-11.230,0.000
1759592758.222,71.777,-29.297,-12.695,-2.930,0.000
1759592758.226,-276.855,-31.250,-11.230,8.301,0.000
1759592758.230,-183.105,-30.273,-3.418,-3.906,0.000
1759592758.233,197.266,-28.809,-0.977,-9.766,0.000
1759592758.237,178.223,-27.832,-6.348,-4.883,0.000
1759592758.241,-208.984,-28.809,-13.672,-3.906,0.000
1759592758.245,-248.535,-25.391,-3.418,5.859,0.000
1759592758.249,104.980,-24.414,-1.953,-0.977,0.000
1759592758.253,260.254,-24.414,-6.836,-2.441,0.000
1759592758.257,-96.191,-23.926,3.906,8.789,0.000
1759592758.261,-266.602,-20.020,10.742,2.930,0.000
1759592758.265,11.719,-16.602,4.395,-5.859,0.000
1759592758.269,286.621,-14.160,-1.953,-6.348,0.000
1759592758.272,18.555,-15.137,-0.977,-3.906,0.000
1759592758.276,-270.020,-21.973,0.977,-0.977,0.000
1759592758.280,-109.863,-26.855,-4.883,-12.207,0.000
1759592758.284,242.676,-25.879,-7.812,-18.066,0.000
1759592758.288,105.957,-25.879,-5.859,-14.160,0.000
1759592758.292,-260.742,-26.855,-9.277,-15.625,0.000
1759592758.296,-208.984,-28.809,-10.254,-15.625,0.000
1759592758.300,173.828,-25.391,-10.742,-13.672,0.000
1759592758.304,208.008,-25.879,-9.766,-18.066,0.000
1759592758.308,-185.547,-40.527,-14.648,-23.438,0.000
1759592758.312,-278.320,-41.016,-19.043,-20.020,0.000
1759592758.315,50.293,-34.668,-27.344,-20.020,0.000
1759592758.319,245.117,-31.738,-27.832,-19.531,0.000
1759592758.323,-91.797,-38.086,-15.625,-21.484,0.000
1759592758.327,-286.621,-41.992,-17.090,-20.508,0.000
1759592758.331,-19.531,-30.273,-18.066,-13.184,0.000
1759592758.335,290.527,-21.484,-8.789,-20.020,0.000
1759592758.339,56.641,-19.531,-3.418,-10.742,0.000
1759592758.343,-247.070,-26.855,-4.883,4.395,0.000
1759592758.347,-100.586,-24.902,-4.395,-6.348,0.000
1759592758.351,267.090,-19.531,-4.883,-15.625,0.000
1759592758.355,148.926,-25.879,-6.836,-9.277,0.000
1759592758.358,-213.867,-33.203,-5.859,-14.160,0.000
1759592758.362,-163.086,-31.738,-3.906,-17.090,0.000
1759592758.366,176.270,-26.367,-0.977,-8.789,0.000
1759592758.370,212.891,-31.738,-7.812,-17.090,0.000
1759592758.374,-170.410,-38.086,-14.160,-14.160,0.000
1759592758.378,-273.926,-32.227,-11.719,-5.371,0.000
1759592758.382,41.504,-35.156,-11.719,-23.926,0.000
1759592758.386,256.836,-41.016,-17.090,-32.715,0.000
1759592758.390,-74.219,-32.715,-15.625,-24.414,0.000
1759592758.394,-302.246,-33.691,-10.254,-31.738,0.000
1759592758.397,-62.988,-28.809,-8.301,-36.133,0.000
1759592758.401,258.789,-17.578,-9.277,-31.738,0.000
1759592758.405,48.340,-14.648,-14.160,-27.344,0.000
1759592758.409,-285.156,-22.949,-4.395,-18.555,0.000
1759592758.413,-180.176,-17.578,4.395,-25.391,0.000
1759592758.417,181.152,-18.555,-0.977,-46.875,0.000
1759592758.421,98.633,-33.203,4.395,-62.500,0.000
1759592758.425,-308.594,-31.250,17.090,-78.613,0.000
1759592758.429,-331.055,-28.320,18.066,-94.238,0.000
1759592758.433,13.672,-33.203,18.066,-116.699,0.000
1759592758.437,117.676,-19.531,32.715,-139.160,0.000
1759592758.440,-261.719,-8.789,41.016,-148.438,0.000
1759592758.444,-433.594,-15.625,37.598,-158.203,0.000
1759592758.448,-160.645,-13.672,38.574,-178.223,0.000
1759592758.452,82.031,-11.230,42.969,-200.684,0.000
1759592758.456,-232.910,-3.906,60.059,-209.473,0.000
1759592758.460,-504.395,-2.441,73.242,-213.379,0.000
1759592758.464,-313.965,-8.301,54.199,-234.863,0.000
1759592758.468,25.879,-3.906,53.223,-245.117,0.000
1759592758.472,-151.367,-4.395,62.500,-248.047,0.000
1759592758.476,-500.488,-5.371,60.059,-239.746,0.000
1759592758.480,-406.738,-1.953,57.129,-227.539,0.000
1759592758.483,-24.414,-0.977,65.918,-234.375,0.000
1759592758.487,-24.414,-2.930,68.848,-227.539,0.000
1759592758.491,-389.160,-4.395,55.664,-204.102,0.000
1759592758.495,-421.875,0.000,49.316,-189.453,0.000
1759592758.499,-67.383,-3.418,49.316,-193.359,0.000
1759592758.503,83.008,-4.395,51.758,-183.105,0.000
1759592758.507,-280.273,2.441,54.199,-159.668,0.000
1759592758.511,-448.730,-1.953,52.246,-151.855,0.000
1759592758.515,-158.203,-13.184,46.875,-145.996,0.000
1759592758.519,131.836,-14.160,40.527,-136.719,0.000
1759592758.522,-130.371,-11.230,35.645,-111.816,0.000
1759592758.526,-410.645,-15.625,34.668,-95.215,0.000
1759592758.530,-233.398,-21.973,41.992,-106.445,0.000
1759592758.534,139.160,-21.973,40.039,-103.516,0.000
1759592758.538,19.531,-24.414,31.738,-85.938,0.000
1759592758.542,-351.562,-26.855,31.250,-80.566,0.000
1759592758.546,-284.668,-33.203,37.109,-78.125,0.000
1759592758.550,112.305,-39.062,29.785,-87.402,0.000
1759592758.554,119.629,-37.109,15.625,-80.078,0.000
1759592758.558,-268.555,-35.645,20.020,-56.641,0.000
1759592758.562,-330.566,-35.156,37.598,-46.387,0.000
1759592758.565,17.090,-30.273,48.340,-42.969,0.000
1759592758.569,190.430,-33.203,34.668,-62.500,0.000
1759592758.573,-165.039,-32.715,15.625,-63.965,0.000
1759592758.577,-355.957,-18.555,39.062,-52.246,0.000
1759592758.581,-95.215,-17.578,35.645,-66.895,0.000
1759592758.585,204.590,-5.859,2.441,-77.637,0.000
1759592758.589,-36.621,21.484,66.895,-51.758,0.000
1759592758.593,-344.238,2.930,105.469,-56.641,0.000
1759592758.597,-214.844,-5.371,38.574,-99.609,0.000
1759592758.601,165.039,67.871,64.453,-78.613,0.000
1759592758.605,47.852,36.621,34.180,-78.125,0.000
1759592758.608,-330.566,-37.598,-22.461,-88.867,0.000
1759592758.612,-264.648,27.344,56.152,-55.176,0.000
1759592758.616,112.305,49.805,123.047,-60.547,0.000
1759592758.620,147.949,-14.160,82.520,-86.914,0.000
1759592758.624,-253.418,-37.109,7.324,-99.121,0.000
1759592758.628,-368.164,-33.691,23.438,-110.352,0.000
1759592758.632,-55.176,-25.391,99.609,-106.934,0.000
1759592758.636,164.062,-20.020,181.152,-102.051,0.000
1759592758.640,-182.129,-14.648,271.484,-97.656,0.000
1759592758.644,-420.410,-3.906,365.723,-79.102,0.000
1759592758.647,-179.199,-9.277,446.777,-72.266,0.000
1759592758.651,131.836,-10.254,492.676,-75.195,0.000
1759592758.655,-112.305,-1.465,521.973,-72.266,0.000
1759592758.659,-435.547,11.719,527.344,-57.129,0.000
1759592758.663,-295.410,11.719,520.020,-47.852,0.000
1759592758.667,79.590,6.836,515.137,-45.898,0.000
1759592758.671,15.625,5.371,503.906,-25.879,0.000
1759592758.675,-375.488,5.859,476.562,-11.230,0.000
1759592758.679,-382.324,8.789,453.125,-2.441,0.000
1759592758.683,0.000,10.254,435.547,8.301,0.000
1759592758.687,90.332,10.254,416.016,12.695,0.000
1759592758.690,-289.551,5.859,401.855,15.625,0.000
1759592758.694,-390.137,2.441,397.461,17.090,0.000
1759592758.698,-62.012,0.488,396.484,21.484,0.000
1759592758.702,213.867,-0.488,381.836,29.785,0.000
1759592758.706,-78.125,1.465,368.652,44.434,0.000
1759592758.710,-324.219,-3.418,364.746,36.133,0.000
1759592758.714,-89.844,-10.742,362.793,25.391,0.000
1759592758.718,289.551,-11.719,355.957,31.250,0.000
1759592758.722,111.328,-12.695,356.445,39.551,0.000
1759592758.726,-238.281,-20.996,361.816,48.828,0.000
1759592758.730,-126.953,-21.973,354.004,46.387,0.000
1759592758.733,265.625,-20.020,343.262,42.480,0.000
1759592758.737,240.723,-22.949,344.238,55.176,0.000
1759592758.741,-144.043,-23.926,344.238,64.941,0.000
1759592758.745,-162.598,-28.320,335.938,64.941,0.000
1759592758.749,214.355,-29.785,321.777,74.219,0.000
1759592758.753,374.023,-26.855,313.477,87.891,0.000
1759592758.757,14.160,-25.879,303.711,92.773,0.000
1759592758.761,-138.184,-27.344,285.645,91.309,0.000
1759592758.765,145.508,-23.438,275.879,90.820,0.000
1759592758.769,412.109,-25.879,268.555,86.426,0.000
1759592758.772,136.230,-33.203,257.324,92.285,0.000
1759592758.776,-134.277,-29.785,245.117,104.980,0.000
1759592758.780,56.641,-25.391,232.910,100.586,0.000
1759592758.784,407.715,-29.297,215.332,90.820,0.000
1759592758.788,262.695,-32.715,204.102,90.820,0.000
1759592758.792,-96.191,-26.367,196.777,94.238,0.000
1759592758.796,-44.922,-24.902,182.129,95.703,0.000
1759592758.800,336.914,-21.973,189.941,91.309,0.000
1759592758.804,348.633,-19.043,190.430,92.773,0.000
1759592758.808,-57.617,-27.832,169.434,91.797,0.000
1759592758.812,-122.070,-37.109,160.156,76.172,0.000
1759592758.815,185.059,-33.203,158.203,65.430,0.000
1759592758.819,342.773,-22.461,151.367,69.824,0.000
1759592758.823,24.902,-29.785,146.484,73.242,0.000
1759592758.827,-176.758,-33.691,139.160,63.965,0.000
1759592758.831,69.824,-30.762,129.395,49.316,0.000
1759592758.835,362.305,-29.297,124.023,43.945,0.000
1759592758.839,106.934,-31.250,114.746,61.035,0.000
1759592758.843,-203.613,-36.621,108.398,69.824,0.000
1759592758.847,-43.457,-32.715,107.910,55.176,0.000
1759592758.851,320.312,-34.668,99.609,43.945,0.000
1759592758.854,192.871,-35.645,93.262,41.504,0.000
1759592758.858,-180.664,-28.809,99.121,50.781,0.000
1759592758.862,-145.996,-32.715,96.680,43.457,0.000
1759592758.866,226.074,-32.715,85.449,27.344,0.000
1759592758.870,278.809,-25.391,84.961,36.621,0.000
1759592758.874,-111.816,-27.832,86.914,50.293,0.000
1759592758.878,-199.707,-39.551,82.520,48.828,0.000
1759592758.882,135.742,-35.645,77.148,47.852,0.000
1759592758.886,333.984,-27.344,71.777,52.246,0.000
1759592758.890,-9.766,-31.738,79.102,55.664,0.000
1759592758.894,-224.609,-34.180,78.125,56.152,0.000
1759592758.897,21.973,-30.273,68.848,51.270,0.000
1759592758.901,322.754,-34.180,65.918,37.598,0.000
1759592758.905,92.773,-31.738,71.289,30.273,0.000
1759592758.909,-220.215,-27.344,73.730,38.574,0.000
1759592758.913,-97.168,-30.762,69.336,40.039,0.000
1759592758.917,269.531,-23.926,70.801,28.809,0.000
1759592758.921,191.895,-24.414,68.848,27.832,0.000
1759592758.925,-188.477,-33.203,62.988,30.762,0.000
1759592758.929,-183.594,-31.250,60.059,32.715,0.000
1759592758.933,184.082,-26.367,62.988,25.391,0.000
1759592758.937,274.902,-27.832,64.453,8.789,0.000
1759592758.940,-115.723,-33.203,56.152,9.766,0.000
1759592758.944,-245.117,-39.062,58.594,13.184,0.000
1759592758.948,74.707,-34.180,66.406,10.742,0.000
1759592758.952,313.477,-23.926,67.871,11.719,0.000
1759592758.956,-5.859,-27.344,63.477,19.043,0.000
1759592758.960,-251.465,-33.203,56.641,24.902,0.000
1759592758.964,-31.738,-34.668,52.734,18.066,0.000
1759592758.968,305.664,-39.551,49.316,11.230,0.000
1759592758.972,106.445,-43.457,43.945,11.719,0.000
1759592758.976,-240.234,-49.805,42.969,20.508,0.000
1759592758.979,-135.742,-48.340,49.316,15.137,0.000
1759592758.983,246.094,-37.598,50.781,2.930,0.000
1759592758.987,209.473,-36.133,46.387,9.766,0.000
1759592758.991,-186.035,-37.598,40.039,12.207,0.000
1759592758.995,-215.332,-34.180,38.574,11.719,0.000
1759592758.999,138.184,-29.785,39.551,8.789,0.000
1759592759.003,268.555,-23.926,37.109,7.324,0.000
1759592759.007,-88.379,-23.926,41.992,20.508,0.000
1759592759.011,-250.488,-26.367,43.945,22.461,0.000
1759592759.015,24.414,-24.902,39.062,0.977,0.000
1759592759.019,287.109,-23.926,28.320,-2.441,0.000
1759592759.022,-10.254,-25.879,28.809,-0.488,0.000
1759592759.026,-272.461,-28.809,37.109,-8.789,0.000
1759592759.030,-71.289,-32.715,29.785,-11.719,0.000
1759592759.034,268.066,-31.738,26.855,-13.184,0.000
1759592759.038,111.816,-30.273,29.297,-6.836,0.000
1759592759.042,-244.141,-26.855,34.180,-10.742,0.000
1759592759.046,-172.363,-22.461,35.156,-13.184,0.000
1759592759.050,208.008,-19.043,29.297,-16.113,0.000
1759592759.054,208.496,-19.531,34.668,-13.672,0.000
1759592759.058,-187.012,-23.926,42.480,-10.742,0.000
1759592759.062,-240.234,-26.367,38.574,-6.836,0.000
1759592759.065,96.680,-25.391,32.715,-8.789,0.000
1759592759.069,256.348,-25.879,33.691,-20.996,0.000
1759592759.073,-98.145,-27.832,32.227,-12.695,0.000
1759592759.077,-287.598,-28.320,29.297,-2.441,0.000
1759592759.081,-31.738,-31.738,28.320,-8.301,0.000
1759592759.085,263.672,-31.250,33.203,-13.184,0.000
1759592759.089,6.348,-29.785,29.785,-8.789,0.000
1759592759.093,-301.758,-30.273,27.344,-2.441,0.000
1759592759.097,-124.023,-33.203,30.762,-4.395,0.000
1759592759.101,239.746,-30.273,34.668,-18.555,0.000
1759592759.104,97.656,-27.832,35.645,-18.066,0.000
1759592759.108,-271.484,-32.227,30.273,-8.301,0.000
1759592759.112,-231.934,-29.297,29.297,-13.184,0.000
1759592759.116,140.625,-33.203,29.297,-18.555,0.000
1759592759.120,188.965,-35.156,30.762,-21.973,0.000
1759592759.124,-189.941,-24.902,27.344,-5.859,0.000
1759592759.128,-280.273,-23.438,32.715,1.953,0.000
1759592759.132,37.598,-23.926,39.551,-17.578,0.000
1759592759.136,236.328,-23.926,36.621,-20.020,0.000
1759592759.140,-104.980,-25.391,35.645,-7.812,0.000
1759592759.144,-322.266,-31.250,34.180,-18.555,0.000
1759592759.147,-73.730,-32.715,30.762,-34.180,0.000
1759592759.151,244.629,-34.180,24.902,-25.879,0.000
1759592759.155,21.973,-31.738,28.320,-5.859,0.000
1759592759.159,-299.316,-29.297,37.598,-3.906,0.000
1759592759.163,-167.480,-35.156,34.668,-20.996,0.000
1759592759.167,213.379,-32.227,29.297,-21.973,0.000
1759592759.171,133.301,-22.949,30.762,-4.395,0.000
1759592759.175,-245.117,-28.320,41.504,-0.977,0.000
1759592759.179,-234.863,-32.227,42.969,-15.137,0.000
1759592759.183,125.000,-33.203,30.273,-23.926,0.000
1759592759.187,210.449,-32.715,26.855,-17.090,0.000
1759592759.190,-169.434,-31.250,30.762,-9.277,0.000
1759592759.194,-289.551,-34.180,28.809,-16.113,0.000
1759592759.198,24.902,-30.273,30.762,-14.160,0.000
1759592759.202,261.230,-23.438,34.668,-11.230,0.000
1759592759.206,-50.293,-27.344,34.668,-5.859,0.000
1759592759.210,-293.945,-31.250,33.203,-0.977,0.000
1759592759.214,-81.055,-33.691,27.344,-3.418,0.000
1759592759.218,240.234,-37.598,28.320,-10.742,0.000
1759592759.222,40.527,-35.156,36.133,-21.973,0.000
1759592759.226,-295.410,-34.180,30.273,-24.414,0.000
1759592759.229,-193.848,-37.109,30.273,-26.855,0.000
1759592759.233,184.570,-38.086,28.809,-33.691,0.000
1759592759.237,142.090,-37.598,24.414,-31.250,0.000
1759592759.241,-250.000,-39.062,22.949,-20.020,0.000
1759592759.245,-271.484,-38.086,22.461,-26.367,0.000
1759592759.249,86.426,-35.156,20.996,-34.668,0.000
1759592759.253,211.426,-35.156,20.508,-32.227,0.000
1759592759.257,-163.574,-33.203,23.438,-23.438,0.000
1759592759.261,-312.012,-33.203,22.461,-10.742,0.000
1759592759.265,-19.043,-40.039,24.902,-15.137,0.000
1759592759.269,237.305,-44.434,25.391,-20.508,0.000
1759592759.272,-52.246,-41.016,22.461,-17.578,0.000
1759592759.276,-313.965,-43.457,24.414,-18.066,0.000
1759592759.280,-113.770,-41.016,31.250,-21.973,0.000
1759592759.284,222.656,-32.715,27.344,-26.855,0.000
1759592759.288,49.805,-29.297,21.484,-22.461,0.000
1759592759.292,-297.363,-33.691,26.367,-24.902,0.000
1759592759.296,-210.938,-31.738,29.297,-28.320,0.000
1759592759.300,165.039,-25.879,23.926,-30.273,0.000
1759592759.304,161.621,-24.902,21.973,-12.695,0.000
1759592759.308,-221.191,-26.367,29.785,-4.883,0.000
1759592759.311,-273.438,-30.762,30.762,-24.414,0.000
1759592759.315,83.008,-27.344,25.879,-25.879,0.000
1759592759.319,249.512,-26.367,29.785,-19.531,0.000
1759592759.323,-111.816,-25.879,36.133,-13.672,0.000
1759592759.327,-292.969,-25.391,30.762,-16.113,0.000
1759592759.331,-27.832,-28.809,23.438,-25.391,0.000
1759592759.335,254.395,-29.297,22.949,-23.926,0.000
1759592759.339,-9.277,-28.809,28.320,-15.137,0.000
1759592759.343,-307.129,-28.320,31.738,-19.043,0.000
1759592759.347,-137.207,-27.832,24.902,-24.414,0.000
1759592759.351,224.121,-26.367,17.578,-16.113,0.000
1759592759.354,101.074,-26.367,25.879,-17.090,0.000
1759592759.358,-262.695,-28.809,31.250,-20.996,0.000
1759592759.362,-225.098,-28.809,28.320,-13.672,0.000
1759592759.366,150.391,-27.344,26.367,-10.254,0.000
1759592759.370,181.152,-29.297,29.297,-12.207,0.000
1759592759.374,-201.660,-33.691,29.785,-8.789,0.000
1759592759.378,-274.902,-31.738,29.785,0.977,0.000
1759592759.382,48.828,-25.391,30.273,-8.301,0.000
1759592759.386,239.746,-21.973,29.785,-19.043,0.000
1759592759.390,-99.121,-23.438,26.367,-16.602,0.000
1759592759.394,-313.965,-30.762,22.461,-8.789,0.000
1759592759.397,-70.801,-35.645,27.832,-13.184,0.000
1759592759.401,238.770,-39.551,29.297,-18.066,0.000
1759592759.405,8.301,-40.527,27.344,-10.254,0.000
1759592759.409,-305.664,-37.109,21.484,-3.906,0.000
1759592759.413,-172.852,-36.621,20.020,-11.230,0.000
1759592759.417,189.941,-38.086,26.855,-21.484,0.000
1759592759.421,104.980,-36.621,30.273,-11.230,0.000
1759592759.425,-267.578,-39.551,33.691,-3.906,0.000
1759592759.429,-250.488,-34.180,33.691,-4.395,0.000
1759592759.433,122.070,-23.438,37.109,-3.906,0.000
1759592759.436,193.848,-25.391,40.039,1.465,0.000
1759592759.440,-189.453,-29.297,34.180,-3.906,0.000
1759592759.444,-294.922,-31.250,32.227,-11.719,0.000
1759592759.448,19.043,-26.855,32.227,-11.719,0.000
1759592759.452,244.629,-23.926,34.180,1.465,0.000
1759592759.456,-72.266,-25.879,36.621,7.324,0.000
1759592759.460,-305.664,-29.785,38.086,-8.301,0.000
1759592759.464,-76.660,-30.273,35.156,-10.254,0.000
1759592759.468,248.047,-25.879,37.109,-5.859,0.000
1759592759.472,45.410,-23.438,41.016,-5.371,0.000
1759592759.476,-296.387,-24.414,39.551,-5.371,0.000
1759592759.479,-185.547,-19.531,35.645,-13.672,0.000
1759592759.483,196.289,-20.508,25.879,-18.555,0.000
1759592759.487,138.184,-25.391,23.926,-8.301,0.000
1759592759.491,-237.305,-23.926,29.297,-0.488,0.000
1759592759.495,-251.953,-28.809,28.809,-6.348,0.000
1759592759.499,104.980,-33.691,23.926,-13.672,0.000
1759592759.503,209.473,-34.180,24.414,-12.207,0.000
1759592759.507,-169.922,-41.016,29.297,-17.090,0.000
1759592759.511,-300.781,-40.527,23.926,-24.902,0.000
1759592759.515,-12.207,-36.133,21.484,-39.551,0.000
1759592759.519,239.746,-34.668,20.996,-50.293,0.000
1759592759.522,-51.270,-35.156,21.484,-38.574,0.000
1759592759.526,-299.316,-37.598,20.508,-28.809,0.000
1759592759.530,-95.215,-38.574,15.137,-23.926,0.000
1759592759.534,237.793,-35.156,14.160,-21.484,0.000
1759592759.538,63.965,-35.645,20.020,-17.578,0.000
1759592759.542,-278.809,-34.180,20.508,-13.672,0.000
1759592759.546,-207.520,-33.203,17.578,-13.672,0.000
1759592759.550,163.574,-33.691,22.461,-24.414,0.000
1759592759.554,155.762,-29.785,21.973,-28.809,0.000
1759592759.558,-227.539,-30.762,19.043,-17.090,0.000
1759592759.561,-266.602,-26.367,23.438,-5.371,0.000
1759592759.565,80.078,-21.484,24.902,-7.812,0.000
1759592759.569,235.840,-21.484,31.738,-7.324,0.000
1759592759.573,-125.000,-17.090,37.598,5.371,0.000
1759592759.577,-308.594,-18.066,33.691,1.953,0.000
1759592759.581,-29.297,-25.879,30.762,-5.371,0.000
1759592759.585,248.047,-25.879,25.879,-12.207,0.000
1759592759.589,-29.785,-28.320,19.531,-1.465,0.000
1759592759.593,-311.035,-28.809,22.461,0.488,0.000
1759592759.597,-126.465,-27.344,27.832,-18.555,0.000
1759592759.601,230.469,-25.879,25.879,-18.066,0.000
1759592759.604,83.496,-27.832,21.973,-18.066,0.000
1759592759.608,-282.227,-33.691,16.602,-20.996,0.000
1759592759.612,-228.516,-32.227,17.578,-18.066,0.000
1759592759.616,154.297,-30.762,21.973,-19.043,0.000
1759592759.620,184.570,-31.738,20.020,-21.973,0.000
1759592759.624,-207.520,-37.109,18.555,-19.043,0.000
1759592759.628,-274.902,-33.203,24.414,-11.230,0.000
1759592759.632,63.477,-27.832,25.391,-14.648,0.000
1759592759.636,250.977,-28.320,19.531,-18.066,0.000
1759592759.640,-98.633,-27.832,26.855,-8.301,0.000
1759592759.644,-300.781,-31.250,33.203,-5.371,0.000
1759592759.647,-38.574,-34.180,25.879,-17.090,0.000
1759592759.651,264.160,-33.203,22.949,-19.531,0.000
1759592759.655,26.855,-34.180,30.273,-9.766,0.000
1759592759.659,-271.973,-36.621,30.762,-9.766,0.000
1759592759.663,-128.906,-35.156,24.902,-14.160,0.000
1759592759.667,226.074,-37.598,24.414,-18.555,0.000
1759592759.671,123.047,-42.480,19.043,-25.879,0.000
1759592759.675,-241.211,-43.457,20.020,-19.043,0.000
1759592759.679,-216.309,-37.109,24.902,-15.137,0.000
1759592759.683,135.742,-26.367,23.438,-28.320,0.000
1759592759.686,209.961,-15.625,35.156,-19.531,0.000
1759592759.690,-171.387,-23.438,29.297,-11.230,0.000
1759592759.694,-283.203,-21.484,37.109,-18.555,0.000
1759592759.698,40.039,-15.625,43.457,-34.668,0.000
