timestamps,TP9,AF7,AF8,TP10,Right AUX
1759592797.342,31.250,-21.973,-26.367,-19.043,0.000
1759592797.346,-269.043,-27.832,-23.926,-17.578,0.000
1759592797.350,-166.992,-28.809,-21.973,-15.625,0.000
1759592797.353,172.852,-24.902,-20.996,-16.602,0.000
1759592797.357,119.629,-29.785,-19.043,-22.461,0.000
1759592797.361,-230.469,-32.715,-19.531,-25.391,0.000
1759592797.365,-248.535,-36.133,-26.367,-25.391,0.000
1759592797.369,81.055,-41.504,-29.297,-24.902,0.000
1759592797.373,191.406,-35.156,-20.996,-17.090,0.000
1759592797.377,-140.625,-33.691,-13.672,-16.113,0.000
1759592797.381,-264.160,-35.645,-16.602,-15.625,0.000
1759592797.385,11.719,-31.250,-19.043,-8.789,0.000
1759592797.389,250.000,-28.809,-18.555,-6.836,0.000
1759592797.392,-16.602,-26.855,-18.555,-11.230,0.000
1759592797.396,-250.488,-33.203,-22.461,-7.812,0.000
1759592797.400,-64.941,-35.156,-22.949,-5.859,0.000
1759592797.404,247.070,-26.855,-20.020,-5.371,0.000
1759592797.408,85.449,-34.668,-17.090,0.977,0.000
1759592797.412,-230.957,-37.598,-13.184,-2.930,0.000
1759592797.416,-156.738,-35.645,-21.484,0.488,0.000
1759592797.420,183.105,-35.156,-22.949,-3.418,0.000
1759592797.424,177.734,-24.414,-10.742,-11.719,0.000
1759592797.428,-171.875,-24.902,-9.277,-1.465,0.000
1759592797.432,-219.238,-32.227,-13.184,0.488,0.000
1759592797.435,91.797,-33.691,-13.184,-6.348,0.000
1759592797.439,226.074,-32.715,-12.695,-14.160,0.000
1759592797.443,-107.910,-36.621,-15.625,-10.254,0.000
1759592797.447,-267.090,-39.062,-14.648,-11.719,0.000
1759592797.451,-15.625,-35.645,-13.672,-18.066,0.000
1759592797.455,235.840,-30.762,-12.695,-7.812,0.000
1759592797.459,-16.602,-34.180,-17.578,-9.766,0.000
1759592797.463,-287.598,-42.480,-26.367,-11.230,0.000
1759592797.467,-124.512,-36.133,-15.625,-16.113,0.000
1759592797.471,202.148,-36.133,-18.555,-23.438,0.000
1759592797.475,77.148,-46.387,-30.273,-18.555,0.000
1759592797.478,-252.930,-54.199,-24.902,-19.531,0.000
1759592797.482,-216.797,-52.246,-19.043,-29.785,0.000
1759592797.486,120.117,-42.969,-27.344,-32.715,0.000
1759592797.490,151.367,-43.457,-32.715,-26.367,0.000
1759592797.494,-202.637,-44.922,-20.020,-20.020,0.000
1759592797.498,-270.996,-43.945,-20.996,-23.926,0.000
1759592797.502,39.062,-52.734,-35.645,-31.250,0.000
1759592797.506,200.684,-52.734,-38.086,-25.391,0.000
1759592797.510,-116.699,-48.340,-31.250,-30.762,0.000
1759592797.514,-297.852,-46.387,-29.297,-40.039,0.000
1759592797.517,-62.988,-44.434,-34.180,-33.691,0.000
1759592797.521,218.750,-46.387,-29.785,-35.645,0.000
1759592797.525,0.000,-44.922,-23.438,-39.062,0.000
1759592797.529,-278.320,-42.480,-21.484,-37.598,0.000
1759592797.533,-144.043,-41.504,-20.020,-29.785,0.000
1759592797.537,192.871,-38.574,-19.043,-24.414,0.000
1759592797.541,108.398,-40.039,-18.066,-26.855,0.000
1759592797.545,-229.492,-40.039,-21.484,-24.414,0.000
1759592797.549,-212.891,-41.504,-32.227,-21.973,0.000
1759592797.553,123.047,-45.410,-32.227,-23.438,0.000
1759592797.557,200.684,-38.086,-17.090,-20.996,0.000
1759592797.560,-150.879,-34.180,-17.578,-15.137,0.000
1759592797.564,-239.258,-38.086,-27.832,-23.438,0.000
1759592797.568,55.664,-48.828,-32.715,-27.344,0.000
1759592797.572,229.980,-49.316,-35.156,-28.320,0.000
1759592797.576,-62.012,-39.551,-31.250,-26.367,0.000
1759592797.580,-265.137,-38.574,-29.297,-21.484,0.000
1759592797.584,-62.988,-40.527,-24.902,-30.762,0.000
1759592797.588,224.121,-35.156,-22.949,-34.180,0.000
1759592797.592,33.691,-36.621,-27.832,-35.645,0.000
1759592797.596,-263.184,-43.457,-37.598,-37.598,0.000
1759592797.600,-154.297,-41.992,-36.621,-38.574,0.000
1759592797.603,191.406,-37.109,-22.949,-37.598,0.000
1759592797.607,147.949,-39.551,-23.926,-24.414,0.000
1759592797.611,-203.125,-45.410,-33.691,-16.602,0.000
1759592797.615,-219.238,-45.410,-36.133,-30.273,0.000
1759592797.619,113.770,-42.480,-40.039,-43.945,0.000
1759592797.623,217.773,-41.504,-35.156,-41.016,0.000
1759592797.627,-125.000,-38.086,-30.273,-29.297,0.000
1759592797.631,-250.000,-32.715,-32.715,-30.762,0.000
1759592797.635,22.461,-42.480,-23.438,-30.762,0.000
1759592797.639,245.117,-48.828,-19.531,-27.832,0.000
1759592797.642,-35.645,-45.898,-23.438,-31.738,0.000
1759592797.646,-278.809,-46.387,-23.926,-34.180,0.000
1759592797.650,-88.379,-48.828,-23.438,-37.598,0.000
1759592797.654,229.980,-48.828,-27.344,-31.738,0.000
1759592797.658,69.336,-45.410,-33.203,-23.926,0.000
1759592797.662,-240.234,-46.875,-25.879,-26.367,0.000
1759592797.666,-166.504,-50.293,-22.949,-30.273,0.000
1759592797.670,171.387,-48.828,-24.902,-24.414,0.000
1759592797.674,161.133,-53.223,-23.438,-13.672,0.000
1759592797.678,-193.359,-52.734,-27.344,-14.160,0.000
1759592797.682,-236.328,-47.363,-25.391,-18.066,0.000
1759592797.685,84.473,-44.922,-30.762,-22.949,0.000
1759592797.689,222.656,-42.480,-34.668,-19.531,0.000
1759592797.693,-109.863,-43.457,-21.973,-19.043,0.000
1759592797.697,-260.254,-34.180,-17.578,-24.902,0.000
1759592797.701,-0.488,-35.156,-28.809,-22.949,0.000
1759592797.705,254.395,-48.828,-28.809,-24.414,0.000
1759592797.709,10.742,-41.992,-20.020,-27.344,0.000
1759592797.713,-249.023,-32.227,-19.531,-25.391,0.000
1759592797.717,-93.750,-36.133,-18.066,-26.855,0.000
1759592797.721,231.934,-39.062,-15.137,-26.855,0.000
1759592797.725,106.445,-36.133,-10.742,-22.949,0.000
1759592797.728,-223.145,-34.180,-17.090,-17.090,0.000
1759592797.732,-174.805,-34.180,-18.066,-12.207,0.000
1759592797.736,162.109,-29.297,-11.230,-9.766,0.000
1759592797.740,186.035,-28.320,-9.277,-10.254,0.000
1759592797.744,-166.504,-34.180,-13.672,-1.953,0.000
1759592797.748,-231.445,-37.109,-13.184,-1.953,0.000
1759592797.752,65.918,-31.738,-5.371,-19.043,0.000
1759592797.756,224.121,-29.297,-6.836,-16.602,0.000
1759592797.760,-84.961,-30.762,-10.254,-8.789,0.000
1759592797.764,-274.414,-28.809,-8.301,-10.742,0.000
1759592797.767,-47.852,-21.973,-9.766,-19.043,0.000
1759592797.771,231.934,-20.020,-14.648,-22.461,0.000
1759592797.775,6.348,-23.926,-10.742,-17.578,0.000
1759592797.779,-277.344,-23.926,-8.789,-16.113,0.000
1759592797.783,-138.184,-25.879,-19.043,-21.484,0.000
1759592797.787,196.777,-30.273,-23.926,-25.391,0.000
1759592797.791,105.469,-38.086,-25.879,-15.625,0.000
1759592797.795,-234.375,-37.109,-19.043,-8.789,0.000
1759592797.799,-217.285,-28.809,-12.695,-17.578,0.000
1759592797.803,115.234,-33.203,-16.602,-20.508,0.000
1759592797.807,174.316,-37.109,-15.137,-20.508,0.000
1759592797.810,-173.340,-35.156,-11.230,-22.461,0.000
1759592797.814,-264.160,-30.273,-11.719,-23.438,0.000
1759592797.818,31.738,-28.809,-14.160,-18.066,0.000
1759592797.822,232.910,-30.273,-19.531,-16.113,0.000
1759592797.826,-66.406,-35.156,-22.461,-13.672,0.000
1759592797.830,-276.367,-37.598,-25.879,-15.625,0.000
1759592797.834,-66.406,-38.574,-27.344,-15.137,0.000
1759592797.838,225.098,-38.574,-25.879,-6.836,0.000
1759592797.842,28.320,-37.109,-22.949,-20.996,0.000
1759592797.846,-272.949,-38.574,-21.973,-25.879,0.000
1759592797.849,-160.645,-37.109,-22.461,-18.066,0.000
1759592797.853,184.082,-38.574,-20.508,-12.207,0.000
1759592797.857,126.953,-35.645,-20.996,-8.301,0.000
1759592797.861,-209.961,-33.203,-20.508,-6.836,0.000
1759592797.865,-215.332,-32.227,-21.484,0.000,0.000
1759592797.869,112.793,-28.320,-17.090,-4.395,0.000
1759592797.873,216.309,-33.203,-20.508,-13.184,0.000
1759592797.877,-131.348,-35.156,-27.832,-18.066,0.000
1759592797.881,-258.789,-32.227,-32.227,-14.648,0.000
1759592797.885,15.625,-37.598,-30.273,-17.090,0.000
1759592797.889,247.070,-36.621,-22.461,-21.973,0.000
1759592797.892,-26.855,-33.691,-25.391,-18.066,0.000
1759592797.896,-264.648,-30.762,-29.785,-23.926,0.000
1759592797.900,-77.637,-28.809,-24.902,-30.762,0.000
1759592797.904,233.887,-27.344,-24.414,-33.203,0.000
1759592797.908,65.918,-24.902,-29.297,-24.902,0.000
1759592797.912,-252.930,-28.809,-29.785,-12.207,0.000
1759592797.916,-174.316,-33.691,-25.391,-17.090,0.000
1759592797.920,171.875,-30.762,-21.484,-26.367,0.000
1759592797.924,154.297,-34.180,-30.273,-27.832,0.000
1759592797.928,-211.426,-41.016,-40.039,-21.484,0.000
1759592797.932,-246.094,-39.062,-32.715,-25.879,0.000
1759592797.935,75.195,-39.551,-31.738,-32.227,0.000
1759592797.939,202.637,-45.410,-38.574,-23.438,0.000
1759592797.943,-119.141,-51.270,-36.133,-19.043,0.000
1759592797.947,-264.160,-48.828,-31.738,-18.555,0.000
1759592797.951,-18.066,-42.480,-34.668,-27.832,0.000
1759592797.955,231.934,-45.410,-38.086,-33.691,0.000
1759592797.959,-20.020,-50.781,-33.203,-27.832,0.000
1759592797.963,-281.250,-50.293,-34.668,-27.344,0.000
1759592797.967,-116.211,-44.922,-33.203,-30.762,0.000
1759592797.971,202.637,-44.434,-33.691,-35.156,0.000
1759592797.974,77.148,-49.316,-38.086,-28.320,0.000
1759592797.978,-253.418,-42.480,-35.645,-21.484,0.000
1759592797.982,-208.008,-42.969,-32.715,-25.391,0.000
1759592797.986,137.207,-41.992,-34.668,-24.902,0.000
1759592797.990,161.621,-37.109,-29.785,-23.926,0.000
1759592797.994,-190.918,-40.039,-26.855,-19.043,0.000
1759592797.998,-258.301,-40.527,-29.297,-14.648,0.000
1759592798.002,40.039,-40.039,-25.391,-19.043,0.000
1759592798.006,204.102,-38.574,-25.879,-33.203,0.000
1759592798.010,-106.445,-36.621,-24.902,-34.180,0.000
1759592798.014,-276.367,-36.621,-23.438,-11.719,0.000
1759592798.017,-40.527,-36.133,-25.879,-6.836,0.000
1759592798.021,229.492,-36.621,-22.461,-16.113,0.000
1759592798.025,0.977,-41.992,-20.508,-18.555,0.000
1759592798.029,-274.902,-48.828,-20.508,-14.648,0.000
1759592798.033,-127.441,-49.316,-21.484,-6.836,0.000
1759592798.037,205.078,-50.293,-22.949,-12.695,0.000
1759592798.041,104.980,-51.270,-26.367,-20.508,0.000
1759592798.045,-234.375,-47.363,-27.832,-16.602,0.000
1759592798.049,-215.820,-50.781,-30.273,-20.996,0.000
1759592798.053,120.605,-49.805,-29.785,-20.508,0.000
1759592798.057,181.152,-39.062,-28.320,-11.719,0.000
1759592798.060,-163.086,-42.480,-34.180,-20.020,0.000
1759592798.064,-254.395,-49.805,-40.039,-28.320,0.000
1759592798.068,21.484,-48.828,-46.387,-34.180,0.000
1759592798.072,228.027,-44.434,-44.434,-36.133,0.000
1759592798.076,-77.148,-43.945,-44.922,-27.832,0.000
1759592798.080,-264.648,-45.410,-36.133,-27.344,0.000
1759592798.084,-35.156,-40.039,-22.461,-32.715,0.000
1759592798.088,222.168,-43.457,-32.715,-30.273,0.000
1759592798.092,20.996,-46.387,-34.668,-33.203,0.000
1759592798.096,-278.320,-43.945,-31.250,-39.062,0.000
1759592798.099,-168.457,-45.410,-31.738,-39.551,0.000
1759592798.103,169.434,-45.898,-36.133,-40.039,0.000
1759592798.107,115.723,-41.016,-39.062,-41.504,0.000
1759592798.111,-228.027,-40.527,-38.574,-40.527,0.000
1759592798.115,-238.281,-38.574,-32.227,-28.809,0.000
1759592798.119,91.309,-32.715,-23.926,-19.531,0.000
1759592798.123,185.059,-37.598,-23.438,-18.555,0.000
1759592798.127,-162.598,-44.922,-16.113,-30.762,0.000
1759592798.131,-283.691,-39.062,-16.602,-34.668,0.000
1759592798.135,-4.395,-38.086,-21.973,-28.320,0.000
1759592798.139,212.891,-42.480,-19.531,-31.250,0.000
1759592798.142,-64.453,-42.969,-15.137,-27.344,0.000
1759592798.146,-279.297,-43.945,-17.090,-19.043,0.000
1759592798.150,-90.332,-43.457,-22.949,-24.902,0.000
1759592798.154,224.609,-39.551,-21.484,-27.832,0.000
1759592798.158,65.430,-38.574,-26.855,-25.391,0.000
1759592798.162,-256.348,-43.457,-28.809,-26.855,0.000
1759592798.166,-178.711,-47.852,-26.367,-20.996,0.000
1759592798.170,169.922,-45.898,-22.461,-22.461,0.000
1759592798.174,155.762,-39.551,-12.207,-26.367,0.000
1759592798.178,-194.824,-26.855,-12.207,-25.391,0.000
1759592798.182,-231.445,-26.367,-15.625,-30.762,0.000
1759592798.185,81.543,-35.156,-17.578,-37.598,0.000
1759592798.189,218.262,-41.504,-19.531,-32.227,0.000
1759592798.193,-116.699,-43.945,-21.484,-25.879,0.000
1759592798.197,-277.344,-40.039,-19.043,-20.508,0.000
1759592798.201,-17.090,-42.480,-19.531,-23.438,0.000
1759592798.205,234.375,-48.828,-23.926,-30.273,0.000
1759592798.209,-22.461,-46.387,-23.926,-27.344,0.000
1759592798.213,-274.414,-41.992,-24.902,-16.602,0.000
1759592798.217,-102.539,-35.156,-19.531,-13.672,0.000
1759592798.221,223.633,-29.297,-19.043,-18.066,0.000
1759592798.224,91.309,-36.133,-25.391,-15.625,0.000
1759592798.228,-233.398,-40.527,-23.438,-10.742,0.000
1759592798.232,-176.758,-34.668,-18.555,-8.789,0.000
1759592798.236,165.527,-37.109,-20.020,-10.742,0.000
1759592798.240,191.895,-45.898,-17.090,-14.160,0.000
1759592798.244,-165.039,-46.875,-12.207,-19.531,0.000
1759592798.248,-235.352,-44.434,-18.066,-24.414,0.000
1759592798.252,73.242,-39.551,-19.043,-22.461,0.000
1759592798.256,243.164,-34.180,-23.438,-9.766,0.000
1759592798.260,-71.289,-39.062,-26.367,-6.836,0.000
1759592798.264,-257.812,-41.504,-20.020,-14.160,0.000
1759592798.267,-26.855,-40.527,-24.414,-15.625,0.000
1759592798.271,245.117,-42.969,-33.691,-19.531,0.000
1759592798.275,15.137,-41.016,-26.367,-22.461,0.000
1759592798.279,-271.484,-44.922,-20.508,-25.879,0.000
1759592798.283,-131.836,-52.734,-24.414,-30.273,0.000
1759592798.287,208.496,-45.898,-26.367,-30.273,0.000
1759592798.291,111.328,-41.992,-31.250,-21.973,0.000
1759592798.295,-234.375,-47.363,-26.855,-20.996,0.000
1759592798.299,-215.820,-47.363,-26.855,-21.484,0.000
1759592798.303,117.188,-47.852,-40.039,-20.508,0.000
1759592798.307,178.711,-46.387,-37.598,-24.902,0.000
1759592798.310,-166.016,-45.410,-28.320,-28.809,0.000
1759592798.314,-266.602,-44.922,-28.320,-29.785,0.000
1759592798.318,25.391,-43.945,-26.855,-29.297,0.000
1759592798.322,233.887,-41.992,-25.879,-30.762,0.000
1759592798.326,-62.500,-42.480,-26.367,-27.832,0.000
1759592798.330,-260.742,-41.016,-26.855,-16.602,0.000
1759592798.334,-31.250,-38.086,-23.438,-11.230,0.000
1759592798.338,257.324,-37.109,-20.508,-6.348,0.000
1759592798.342,54.199,-39.551,-24.414,-7.324,0.000
1759592798.346,-242.188,-39.551,-32.715,-13.672,0.000
1759592798.349,-134.766,-35.645,-30.273,-17.090,0.000
1759592798.353,204.590,-32.227,-20.996,-12.695,0.000
1759592798.357,146.973,-31.250,-21.973,-10.742,0.000
1759592798.361,-214.844,-41.992,-29.785,-10.742,0.000
1759592798.365,-226.562,-44.922,-25.879,-13.672,0.000
1759592798.369,111.328,-37.598,-22.461,-23.438,0.000
1759592798.373,218.750,-27.344,-27.344,-18.555,0.000
1759592798.377,-119.141,-28.320,-24.902,-14.648,0.000
1759592798.381,-238.770,-33.691,-20.508,-9.277,0.000
1759592798.385,35.645,-28.809,-14.648,-6.836,0.000
1759592798.389,257.812,-17.090,-16.602,-6.836,0.000
1759592798.392,-20.996,-19.531,-25.879,-8.789,0.000
1759592798.396,-260.254,-36.621,-22.461,-14.160,0.000
1759592798.400,-69.336,-37.598,-17.090,-19.531,0.000
1759592798.404,240.723,-26.367,-22.461,-19.531,0.000
1759592798.408,70.312,-27.344,-26.855,-15.137,0.000
1759592798.412,-233.887,-30.273,-23.438,-18.555,0.000
1759592798.416,-147.949,-30.273,-22.949,-20.508,0.000
1759592798.420,187.012,-28.320,-22.949,-15.137,0.000
1759592798.424,167.969,-25.879,-23.438,-20.508,0.000
1759592798.428,-189.453,-27.832,-20.996,-25.879,0.000
1759592798.432,-219.727,-37.598,-21.484,-19.043,0.000
1759592798.435,99.609,-35.645,-22.949,-19.043,0.000
1759592798.439,227.539,-26.855,-23.926,-13.672,0.000
1759592798.443,-104.004,-29.297,-19.531,-8.789,0.000
1759592798.447,-254.883,-31.738,-11.719,-7.812,0.000
1759592798.451,-2.930,-35.645,-21.484,-4.395,0.000
1759592798.455,244.629,-32.715,-19.531,-12.207,0.000
1759592798.459,-8.301,-31.250,-15.137,-23.926,0.000
1759592798.463,-268.066,-38.574,-20.996,-22.949,0.000
1759592798.467,-105.469,-41.992,-20.508,-19.043,0.000
1759592798.471,215.820,-37.109,-18.555,-19.043,0.000
1759592798.474,82.520,-37.598,-15.625,-19.531,0.000
1759592798.478,-247.070,-37.109,-14.648,-17.090,0.000
1759592798.482,-193.359,-36.133,-14.648,-16.602,0.000
1759592798.486,157.715,-32.715,-12.207,-13.184,0.000
1759592798.490,165.527,-30.273,-15.625,-20.508,0.000
1759592798.494,-202.637,-36.133,-20.020,-26.367,0.000
1759592798.498,-261.719,-36.621,-20.508,-17.090,0.000
1759592798.502,49.316,-38.086,-19.531,-18.066,0.000
1759592798.506,218.262,-39.062,-21.484,-18.066,0.000
1759592798.510,-99.121,-38.574,-22.949,-19.043,0.000
1759592798.514,-273.926,-40.527,-15.625,-18.066,0.000
1759592798.517,-29.785,-37.598,-13.672,-13.672,0.000
1759592798.521,243.652,-31.250,-11.230,-12.207,0.000
1759592798.525,18.555,-34.180,-13.672,-10.254,0.000
1759592798.529,-258.789,-35.156,-16.113,-7.324,0.000
1759592798.533,-125.977,-32.227,-18.555,-16.602,0.000
1759592798.537,204.102,-34.668,-20.508,-26.855,0.000
1759592798.541,111.816,-34.668,-22.949,-13.184,0.000
1759592798.545,-225.586,-38.574,-19.531,-6.836,0.000
1759592798.549,-206.055,-38.086,-12.695,-21.973,0.000
1759592798.553,135.742,-38.574,-20.996,-26.367,0.000
1759592798.557,196.289,-40.527,-24.902,-25.391,0.000
1759592798.560,-156.250,-33.203,-19.531,-25.391,0.000
1759592798.564,-249.512,-34.668,-15.625,-17.578,0.000
1759592798.568,35.645,-43.945,-20.508,-15.625,0.000
1759592798.572,228.516,-45.898,-22.461,-15.137,0.000
1759592798.576,-59.082,-37.598,-18.555,-12.207,0.000
1759592798.580,-258.789,-30.273,-18.066,-12.695,0.000
1759592798.584,-53.711,-32.715,-24.414,-15.625,0.000
1759592798.588,241.211,-33.691,-33.203,-17.578,0.000
1759592798.592,40.039,-35.156,-23.438,-19.043,0.000
1759592798.596,-256.348,-39.551,-17.578,-19.043,0.000
1759592798.599,-138.672,-34.180,-26.367,-17.090,0.000
1759592798.603,204.102,-28.320,-27.832,-17.090,0.000
1759592798.607,145.020,-27.832,-23.926,-17.090,0.000
1759592798.611,-212.402,-35.645,-19.043,-16.602,0.000
1759592798.615,-220.215,-36.621,-24.902,-17.090,0.000
1759592798.619,122.559,-25.391,-21.484,-9.766,0.000
1759592798.623,217.285,-20.508,-14.160,-7.324,0.000
1759592798.627,-129.883,-22.949,-24.414,-15.625,0.000
1759592798.631,-249.512,-29.785,-29.785,-8.789,0.000
1759592798.635,27.344,-27.344,-23.438,-3.906,0.000
1759592798.639,258.301,-27.344,-19.043,-12.207,0.000
1759592798.642,-21.484,-28.809,-23.438,-13.672,0.000
1759592798.646,-256.348,-26.367,-24.902,-15.137,0.000
1759592798.650,-66.406,-32.227,-25.879,-13.672,0.000
1759592798.654,239.258,-33.691,-22.949,-11.230,0.000
1759592798.658,72.754,-28.809,-26.855,-20.996,0.000
1759592798.662,-239.258,-25.391,-31.738,-24.902,0.000
1759592798.666,-156.738,-29.297,-23.926,-20.996,0.000
1759592798.670,182.617,-37.109,-21.973,-18.555,0.000
1759592798.674,173.828,-38.086,-25.879,-22.461,0.000
1759592798.678,-179.199,-31.738,-25.879,-24.902,0.000
1759592798.682,-225.098,-25.879,-22.461,-31.738,0.000
1759592798.685,96.680,-31.250,-19.531,-36.133,0.000
1759592798.689,229.004,-33.691,-20.996,-25.879,0.000
1759592798.693,-110.840,-32.227,-22.949,-22.461,0.000
1759592798.697,-266.113,-34.180,-19.043,-31.250,0.000
1759592798.701,-2.930,-42.480,-22.949,-36.621,0.000
1759592798.705,240.234,-46.387,-30.273,-32.227,0.000
1759592798.709,-19.043,-37.598,-30.762,-27.832,0.000
1759592798.713,-271.973,-34.668,-29.297,-25.879,0.000
1759592798.717,-102.539,-39.551,-31.738,-28.809,0.000
1759592798.721,222.656,-40.527,-35.156,-22.461,0.000
1759592798.724,89.844,-32.227,-29.785,-19.043,0.000
1759592798.728,-243.652,-30.273,-30.762,-31.250,0.000
1759592798.732,-191.895,-33.691,-31.250,-29.297,0.000
1759592798.736,157.715,-33.691,-27.344,-22.461,0.000
1759592798.740,165.039,-38.086,-34.668,-22.461,0.000
1759592798.744,-205.078,-41.504,-39.062,-34.668,0.000
1759592798.748,-285.645,-41.504,-41.504,-45.410,0.000
1759592798.752,23.438,-41.992,-37.598,-37.109,0.000
1759592798.756,183.105,-33.203,-38.086,-50.293,0.000
1759592798.760,-149.902,-34.668,-37.109,-62.988,0.000
1759592798.764,-313.477,-35.156,-24.414,-42.480,0.000
1759592798.767,-64.453,-40.527,-25.391,-31.738,0.000
1759592798.771,196.777,-32.227,-35.645,-50.293,0.000
1759592798.775,-41.504,-35.645,-37.109,-58.594,0.000
1759592798.779,-317.871,-55.664,-23.438,-44.922,0.000
1759592798.783,-187.500,-25.879,-20.020,-52.246,0.000
1759592798.787,121.094,-38.086,-20.996,-87.402,0.000
1759592798.791,5.371,-3.418,-24.414,-109.375,0.000
1759592798.795,-310.059,-0.488,-11.719,-84.473,0.000
1759592798.799,-258.301,-49.316,0.000,-64.941,0.000
1759592798.803,2.441,-25.391,-34.180,-121.582,0.000
1759592798.807,-22.949,25.391,-37.109,-168.945,0.000
1759592798.810,-373.535,25.879,9.277,-143.555,0.000
1759592798.814,-515.137,-37.598,-15.625,-158.691,0.000
1759592798.818,-390.137,-38.086,-27.344,-166.016,0.000
1759592798.822,-462.891,-17.090,-3.418,-144.043,0.000
1759592798.826,-847.656,28.809,-2.930,-175.293,0.000
1759592798.830,-993.164,36.133,15.625,-200.684,0.000
1759592798.834,-735.352,-17.090,37.598,-171.875,0.000
1759592798.838,-477.539,-20.996,47.363,-154.785,0.000
1759592798.842,-766.602,-3.906,36.133,-164.551,0.000
1759592798.846,-1000.000,2.441,33.203,-189.941,0.000
1759592798.849,-988.770,-13.672,62.012,-180.176,0.000
1759592798.853,-997.070,-25.391,64.453,-170.410,0.000
1759592798.857,-1000.000,4.883,50.293,-187.012,0.000
1759592798.861,-990.234,7.324,21.484,-213.867,0.000
1759592798.865,-1000.000,16.113,40.527,-176.270,0.000
1759592798.869,-903.320,80.566,51.758,-113.281,0.000
1759592798.873,-707.520,113.770,47.363,-88.379,0.000
1759592798.877,-837.891,156.738,27.832,-121.094,0.000
1759592798.881,-1000.000,237.793,3.418,-158.691,0.000
1759592798.885,-854.980,274.902,44.434,-127.930,0.000
1759592798.889,-460.449,310.547,40.527,-122.559,0.000
1759592798.892,-495.117,373.047,5.371,-145.020,0.000
1759592798.896,-523.926,422.363,3.418,-120.605,0.000
1759592798.900,-222.656,467.285,-6.836,-96.680,0.000
1759592798.904,73.242,510.742,-18.555,-73.242,0.000
1759592798.908,-321.289,588.867,10.742,-55.664,0.000
1759592798.912,-905.273,660.645,2.930,-83.008,0.000
1759592798.916,-757.324,697.754,-3.906,-54.688,0.000
1759592798.920,-273.926,754.883,-17.578,-55.664,0.000
1759592798.924,-241.699,817.383,-34.180,-81.543,0.000
1759592798.928,-522.461,801.270,-23.926,-37.109,0.000
1759592798.931,-528.320,841.309,-32.227,-31.738,0.000
1759592798.935,-164.062,872.070,-30.762,-35.645,0.000
1759592798.939,16.113,844.727,-24.902,-15.625,0.000
1759592798.943,-345.215,874.023,-44.434,-20.020,0.000
1759592798.947,-507.812,888.184,-62.500,-36.133,0.000
1759592798.951,-158.203,845.703,-37.109,2.930,0.000
1759592798.955,137.695,831.055,-44.922,14.160,0.000
1759592798.959,-176.758,823.242,-68.848,-2.930,0.000
1759592798.963,-465.332,813.477,-62.988,0.977,0.000
1759592798.967,-287.598,809.570,-73.730,-23.438,0.000
1759592798.971,147.949,752.441,-72.754,-9.277,0.000
1759592798.974,109.375,721.191,-50.781,37.109,0.000
1759592798.978,-195.801,709.961,-50.781,37.109,0.000
1759592798.982,-64.453,655.762,-53.711,27.832,0.000
1759592798.986,347.168,638.672,-62.012,23.438,0.000
1759592798.990,383.301,626.953,-65.918,26.367,0.000
1759592798.994,36.133,598.145,-67.871,26.855,0.000
1759592798.998,2.441,590.820,-80.566,8.301,0.000
1759592799.002,361.328,601.562,-98.145,-19.531,0.000
1759592799.006,641.602,545.410,-78.613,25.391,0.000
1759592799.010,385.254,478.027,-44.922,63.965,0.000
1759592799.014,218.750,478.516,-41.016,47.363,0.000
1759592799.017,486.328,470.215,-44.922,47.363,0.000
1759592799.021,780.273,447.266,-50.781,39.551,0.000
1759592799.025,539.062,428.223,-52.734,27.344,0.000
1759592799.029,267.578,416.992,-54.199,25.391,0.000
1759592799.033,438.477,410.156,-68.359,6.348,0.000
1759592799.037,826.172,383.301,-62.988,9.766,0.000
1759592799.041,756.348,343.750,-44.922,38.574,0.000
1759592799.045,383.789,329.102,-44.434,37.598,0.000
1759592799.049,434.570,322.266,-49.805,37.598,0.000
1759592799.053,800.293,302.246,-49.316,36.621,0.000
1759592799.056,861.816,276.855,-42.969,31.738,0.000
1759592799.060,511.719,267.578,-44.922,28.320,0.000
1759592799.064,413.574,258.301,-51.758,27.832,0.000
1759592799.068,742.676,242.188,-54.688,26.855,0.000
1759592799.072,965.332,226.074,-48.828,26.855,0.000
1759592799.076,627.930,211.426,-41.504,34.668,0.000
1759592799.080,380.371,201.172,-33.691,46.387,0.000
1759592799.084,619.629,189.941,-31.250,51.270,0.000
1759592799.088,922.363,173.828,-28.320,43.457,0.000
1759592799.092,664.551,155.762,-26.855,39.062,0.000
1759592799.096,320.312,142.090,-28.809,49.805,0.000
1759592799.099,449.707,133.301,-27.344,47.852,0.000
1759592799.103,823.242,120.117,-26.855,37.598,0.000
1759592799.107,737.305,109.863,-31.738,39.062,0.000
1759592799.111,335.449,104.492,-33.203,46.875,0.000
1759592799.115,325.195,99.121,-25.879,46.387,0.000
1759592799.119,691.895,98.633,-19.531,46.875,0.000
1759592799.123,783.691,94.727,-17.578,50.781,0.000
1759592799.127,377.441,86.914,-19.043,51.270,0.000
1759592799.131,233.398,81.055,-18.555,48.828,0.000
1759592799.135,542.969,77.637,-22.461,47.852,0.000
1759592799.139,765.625,70.801,-23.438,51.270,0.000
1759592799.142,436.035,61.523,-20.996,49.316,0.000
1759592799.146,195.801,55.176,-19.531,41.504,0.000
1759592799.150,397.461,50.293,-21.484,37.109,0.000
1759592799.154,711.426,48.340,-23.926,27.344,0.000
1759592799.158,510.742,47.363,-20.996,29.297,0.000
1759592799.162,152.832,42.969,-14.160,32.715,0.000
1759592799.166,229.492,42.480,-13.672,28.809,0.000
1759592799.170,588.867,38.574,-16.113,27.832,0.000
1759592799.174,544.922,37.598,-11.719,29.785,0.000
1759592799.178,141.113,35.645,-12.207,28.320,0.000
1759592799.181,88.379,29.297,-16.602,21.973,0.000
1759592799.185,423.340,20.996,-20.020,14.648,0.000
1759592799.189,549.805,17.090,-21.973,15.625,0.000
1759592799.193,182.129,17.090,-20.020,15.137,0.000
1759592799.197,14.160,11.230,-21.484,4.883,0.000
1759592799.201,282.227,7.812,-25.879,6.836,0.000
1759592799.205,542.969,-2.441,-24.902,7.324,0.000
1759592799.209,250.488,-6.348,-20.020,1.953,0.000
1759592799.213,-39.062,-3.418,-21.484,-4.395,0.000
1759592799.217,139.160,-5.859,-29.785,-6.836,0.000
1759592799.221,480.469,-7.324,-28.809,-2.441,0.000
1759592799.224,317.383,-13.184,-23.926,-3.418,0.000
1759592799.228,-48.340,-18.555,-25.879,-8.301,0.000
1759592799.232,10.742,-14.648,-28.809,-12.695,0.000
1759592799.236,376.953,-19.531,-26.367,-5.859,0.000
1759592799.240,380.371,-14.648,-25.879,-11.719,0.000
1759592799.244,-11.230,-11.230,-29.785,-13.672,0.000
1759592799.248,-87.402,-20.996,-30.273,-8.301,0.000
1759592799.252,237.305,-20.508,-29.297,-20.020,0.000
1759592799.256,410.156,-20.020,-30.273,-12.207,0.000
1759592799.260,49.316,-26.367,-34.668,-10.254,0.000
1759592799.264,-149.414,-31.250,-36.133,-18.066,0.000
1759592799.267,110.352,-26.855,-32.715,-19.531,0.000
1759592799.271,386.230,-25.391,-37.109,-29.297,0.000
1759592799.275,130.371,-21.484,-34.668,-22.461,0.000
1759592799.279,-168.457,-16.602,-27.344,-13.672,0.000
1759592799.283,-24.414,-20.996,-28.320,-21.484,0.000
1759592799.287,337.891,-22.949,-29.785,-28.809,0.000
1759592799.291,215.332,-29.297,-32.715,-20.508,0.000
1759592799.295,-166.504,-32.715,-31.250,-11.230,0.000
1759592799.299,-138.184,-33.203,-27.344,-27.344,0.000
1759592799.303,226.562,-28.320,-31.250,-30.273,0.000
1759592799.306,284.668,-24.414,-29.785,-23.926,0.000
1759592799.310,-105.469,-30.762,-23.926,-26.367,0.000
1759592799.314,-204.102,-26.367,-25.879,-25.879,0.000
1759592799.318,120.117,-24.414,-28.320,-24.902,0.000
1759592799.322,321.289,-22.949,-26.855,-20.020,0.000
1759592799.326,-11.719,-21.484,-26.855,-14.160,0.000
1759592799.330,-233.887,-28.809,-25.391,-19.043,0.000
1759592799.334,3.418,-33.203,-29.297,-24.902,0.000
1759592799.338,315.918,-29.785,-35.156,-22.461,0.000
1759592799.342,88.379,-31.738,-29.297,-31.738,0.000
1759592799.346,-243.164,-40.039,-32.715,-38.086,0.000
1759592799.349,-123.535,-35.156,-33.203,-35.645,0.000
1759592799.353,250.977,-25.391,-23.926,-35.645,0.000
1759592799.357,182.129,-21.973,-18.066,-31.250,0.000
1759592799.361,-194.336,-23.438,-22.461,-27.832,0.000
1759592799.365,-190.430,-24.414,-30.762,-27.344,0.000
1759592799.369,169.922,-27.832,-25.879,-26.855,0.000
1759592799.373,269.531,-30.762,-24.902,-20.508,0.000
1759592799.377,-105.469,-26.367,-26.367,-18.066,0.000
1759592799.381,-237.793,-29.297,-28.809,-16.602,0.000
1759592799.385,65.918,-31.738,-29.785,-22.461,0.000
1759592799.389,307.129,-24.902,-20.996,-28.320,0.000
1759592799.392,-9.277,-23.438,-20.996,-24.414,0.000
1759592799.396,-230.469,-26.367,-22.949,-25.879,0.000
1759592799.400,0.000,-20.508,-19.531,-21.484,0.000
1759592799.404,297.852,-22.949,-20.020,-21.484,0.000
1759592799.408,107.422,-31.250,-22.461,-21.484,0.000
1759592799.412,-235.840,-31.250,-21.484,-17.578,0.000
1759592799.416,-145.508,-29.785,-19.043,-16.602,0.000
1759592799.420,230.957,-30.273,-24.414,-16.113,0.000
1759592799.424,205.566,-29.785,-28.320,-16.113,0.000
1759592799.428,-185.547,-34.180,-27.344,-12.695,0.000
1759592799.431,-213.867,-26.367,-25.391,-16.602,0.000
1759592799.435,139.648,-24.902,-24.902,-24.902,0.000
1759592799.439,266.113,-29.785,-26.855,-25.391,0.000
1759592799.443,-99.121,-32.227,-29.297,-27.832,0.000
1759592799.447,-250.488,-32.227,-26.855,-28.809,0.000
1759592799.451,34.180,-25.391,-30.762,-27.832,0.000
1759592799.455,295.410,-30.273,-29.785,-20.508,0.000
1759592799.459,10.254,-27.832,-21.484,-13.184,0.000
1759592799.463,-269.531,-23.438,-24.414,-22.461,0.000
1759592799.467,-83.984,-27.832,-21.973,-26.367,0.000
1759592799.471,258.789,-26.855,-24.414,-18.066,0.000
1759592799.474,100.098,-27.344,-24.414,-13.184,0.000
1759592799.478,-249.512,-23.438,-21.973,-17.578,0.000
1759592799.482,-183.594,-25.879,-30.762,-33.203,0.000
1759592799.486,187.500,-27.832,-30.273,-32.227,0.000
1759592799.490,200.195,-23.438,-21.973,-25.879,0.000
1759592799.494,-184.082,-28.320,-21.973,-29.297,0.000
1759592799.498,-243.652,-27.344,-26.367,-19.043,0.000
1759592799.502,102.051,-27.344,-22.949,-8.789,0.000
1759592799.506,273.438,-30.762,-20.996,-11.230,0.000
1759592799.510,-88.379,-31.250,-22.461,-16.602,0.000
1759592799.514,-266.602,-32.715,-30.762,-25.879,0.000
1759592799.517,2.930,-31.738,-33.691,-26.367,0.000
1759592799.521,277.344,-30.273,-27.832,-21.484,0.000
1759592799.525,22.461,-36.621,-28.320,-34.668,0.000
1759592799.529,-277.832,-37.598,-28.809,-33.203,0.000
1759592799.533,-120.117,-36.621,-20.996,-19.043,0.000
1759592799.537,237.305,-36.621,-14.160,-24.414,0.000
1759592799.541,120.605,-40.527,-20.508,-33.691,0.000
1759592799.545,-241.211,-43.457,-28.809,-36.133,0.000
1759592799.549,-211.914,-43.945,-28.809,-38.574,0.000
1759592799.553,148.926,-45.410,-28.320,-45.410,0.000
1759592799.556,199.707,-41.504,-32.227,-50.293,0.000
1759592799.560,-185.547,-39.062,-40.527,-46.875,0.000
1759592799.564,-275.391,-38.086,-41.992,-42.480,0.000
1759592799.568,55.176,-33.691,-30.762,-41.016,0.000
1759592799.572,267.578,-33.691,-22.949,-38.574,0.000
1759592799.576,-60.547,-37.598,-30.273,-34.180,0.000
1759592799.580,-273.438,-38.574,-29.297,-28.809,0.000
1759592799.584,-32.227,-37.109,-19.531,-27.832,0.000
1759592799.588,279.297,-36.621,-20.996,-23.438,0.000
1759592799.592,57.617,-36.621,-25.391,-22.461,0.000
1759592799.596,-260.254,-32.227,-24.414,-23.926,0.000
1759592799.599,-133.301,-31.738,-23.438,-27.832,0.000
1759592799.603,231.445,-40.039,-28.320,-31.738,0.000
1759592799.607,147.461,-42.969,-31.250,-30.762,0.000
1759592799.611,-229.980,-36.133,-28.809,-34.668,0.000
1759592799.615,-222.168,-33.691,-29.297,-40.527,0.000
1759592799.619,127.930,-35.156,-31.738,-40.527,0.000
1759592799.623,214.355,-36.621,-32.715,-31.738,0.000
1759592799.627,-161.133,-41.016,-27.832,-30.273,0.000
1759592799.631,-288.574,-37.109,-30.273,-28.809,0.000
1759592799.635,9.766,-35.156,-34.180,-26.367,0.000
1759592799.639,244.141,-34.668,-28.320,-32.715,0.000
1759592799.642,-54.199,-30.762,-20.020,-26.855,0.000
1759592799.646,-290.527,-30.273,-17.090,-21.484,0.000
1759592799.650,-74.219,-31.738,-16.602,-21.973,0.000
1759592799.654,247.070,-34.180,-20.996,-20.508,0.000
1759592799.658,57.129,-32.715,-25.879,-17.090,0.000
1759592799.662,-264.648,-32.227,-20.996,-16.602,0.000
1759592799.666,-165.039,-33.203,-25.879,-11.719,0.000
1759592799.670,196.777,-33.203,-32.227,-20.508,0.000
1759592799.674,158.203,-34.668,-27.832,-40.527,0.000
1759592799.678,-223.145,-34.180,-21.484,-39.062,0.000
1759592799.681,-251.953,-37.598,-17.090,-33.691,0.000
1759592799.685,91.309,-38.574,-21.484,-29.785,0.000
1759592799.689,223.633,-34.668,-25.391,-34.180,0.000
1759592799.693,-133.789,-34.180,-22.949,-34.180,0.000
1759592799.697,-286.133,-31.250,-21.484,-22.461,0.000
1759592799.701,-4.883,-33.203,-23.926,-25.391,0.000
1759592799.705,244.629,-35.645,-28.320,-34.668,0.000
1759592799.709,-38.086,-40.527,-31.250,-37.109,0.000
1759592799.713,-300.293,-44.434,-31.738,-27.344,0.000
1759592799.717,-113.770,-41.992,-27.344,-30.273,0.000
1759592799.721,229.004,-37.598,-20.020,-30.762,0.000
1759592799.724,77.148,-43.945,-18.555,-21.484,0.000
1759592799.728,-270.020,-44.922,-24.902,-20.996,0.000
1759592799.732,-207.031,-42.480,-25.391,-25.879,0.000
1759592799.736,160.156,-41.504,-26.367,-23.926,0.000
1759592799.740,182.617,-31.250,-27.832,-17.578,0.000
1759592799.744,-186.523,-25.879,-19.043,-14.160,0.000
1759592799.748,-243.652,-29.297,-15.625,-18.066,0.000
1759592799.752,90.332,-28.320,-23.926,-20.508,0.000
1759592799.756,252.930,-30.762,-25.391,-13.672,0.000
1759592799.760,-87.891,-35.645,-19.531,-17.090,0.000
1759592799.764,-267.090,-33.691,-15.625,-26.855,0.000
1759592799.767,-19.531,-39.062,-12.695,-27.344,0.000
1759592799.771,264.648,-42.969,-11.719,-26.855,0.000
1759592799.775,18.066,-35.156,-14.160,-24.902,0.000
1759592799.779,-274.902,-33.203,-15.625,-24.414,0.000
1759592799.783,-125.488,-38.574,-18.066,-30.273,0.000
1759592799.787,223.633,-40.039,-20.020,-30.273,0.000
1759592799.791,115.234,-35.156,-17.578,-25.879,0.000
1759592799.795,-244.141,-36.621,-17.090,-29.297,0.000
1759592799.799,-210.938,-38.086,-20.508,-32.227,0.000
1759592799.803,150.391,-35.645,-26.367,-29.297,0.000
1759592799.806,199.707,-39.062,-28.809,-34.668,0.000
1759592799.810,-176.758,-40.527,-24.414,-39.551,0.000
1759592799.814,-265.137,-36.133,-16.113,-33.691,0.000
1759592799.818,54.688,-34.180,-10.742,-22.949,0.000
1759592799.822,254.883,-35.156,-17.578,-20.020,0.000
1759592799.826,-56.641,-38.574,-19.043,-14.648,0.000
1759592799.830,-271.973,-35.645,-19.043,-24.414,0.000
1759592799.834,-55.664,-29.785,-22.461,-35.645,0.000
1759592799.838,253.418,-26.367,-18.066,-29.297,0.000
1759592799.842,35.645,-28.320,-20.508,-27.344,0.000
1759592799.846,-275.391,-35.645,-28.320,-31.250,0.000
1759592799.849,-139.648,-38.086,-22.461,-27.344,0.000
1759592799.853,227.539,-36.621,-15.137,-20.996,0.000
1759592799.857,148.926,-33.203,-13.672,-21.484,0.000
1759592799.861,-228.516,-32.227,-16.113,-25.879,0.000
1759592799.865,-222.656,-38.574,-18.066,-25.879,0.000
1759592799.869,137.207,-31.738,-14.160,-18.555,0.000
1759592799.873,219.727,-23.438,-17.578,-23.438,0.000
1759592799.877,-156.738,-26.367,-24.902,-30.762,0.000
1759592799.881,-284.180,-31.738,-29.297,-41.992,0.000
1759592799.885,17.578,-37.109,-27.344,-46.387,0.000
1759592799.889,265.625,-38.574,-18.555,-26.367,0.000
1759592799.892,-31.738,-30.273,-20.508,-19.531,0.000
1759592799.896,-264.160,-43.457,-22.949,-23.438,0.000
1759592799.900,-79.102,-41.016,-32.227,-42.480,0.000
1759592799.904,210.449,-18.555,-50.293,-62.500,0.000
1759592799.908,41.016,-42.480,-41.016,-39.062,0.000
1759592799.912,-311.035,-41.016,-38.086,-56.152,0.000
1759592799.916,-259.766,12.207,-61.035,-109.863,0.000
1759592799.920,132.812,-2.441,-34.668,-81.543,0.000
1759592799.924,180.176,-70.312,10.742,-5.371,0.000
1759592799.928,-250.488,-61.035,-16.113,-62.988,0.000
1759592799.931,-354.980,20.996,-49.316,-144.531,0.000
1759592799.935,45.410,13.672,-10.742,-94.727,0.000
1759592799.939,185.059,-41.504,3.906,-75.684,0.000
1759592799.943,-271.973,-9.766,-52.246,-173.340,0.000
1759592799.947,-439.453,16.602,-53.223,-194.824,0.000
1759592799.951,-74.219,-17.090,13.672,-104.004,0.000
1759592799.955,126.953,-4.395,-3.906,-154.785,0.000
1759592799.959,-248.535,78.613,-52.246,-267.090,0.000
1759592799.963,-481.934,33.691,-32.227,-261.719,0.000
1759592799.967,-200.195,-39.551,30.762,-164.062,0.000
1759592799.971,145.996,-9.277,42.480,-142.090,0.000
1759592799.974,-55.176,47.852,38.086,-190.918,0.000
1759592799.978,-438.965,39.551,18.066,-214.844,0.000
1759592799.982,-391.602,5.859,0.000,-215.820,0.000
1759592799.986,-9.277,41.504,56.641,-175.781,0.000
1759592799.990,-50.781,63.965,66.406,-179.688,0.000
1759592799.994,-464.844,93.262,48.828,-180.664,0.000
1759592799.998,-489.746,135.742,56.152,-155.273,0.000
1759592800.002,-160.156,170.898,49.316,-161.133,0.000
1759592800.006,-37.109,214.355,50.781,-154.785,0.000
1759592800.010,-428.223,275.879,52.246,-135.742,0.000
1759592800.014,-689.941,311.035,31.738,-153.809,0.000
1759592800.017,-465.820,336.914,25.391,-143.555,0.000
1759592800.021,-242.188,386.719,37.109,-108.887,0.000
1759592800.025,-707.520,453.125,10.254,-127.930,0.000
1759592800.029,-1000.000,452.148,37.598,-87.402,0.000
1759592800.033,-828.613,431.152,51.270,-66.406,0.000
1759592800.037,-502.930,456.055,27.344,-68.848,0.000
1759592800.041,-667.480,499.023,-5.859,-68.359,0.000
1759592800.045,-987.305,528.809,15.625,-27.832,0.000
1759592800.049,-948.242,561.523,30.762,-17.090,0.000
1759592800.053,-659.180,629.395,-31.738,-76.172,0.000
1759592800.056,-624.512,638.184,-37.109,-69.336,0.000
1759592800.060,-938.477,595.215,-5.371,-28.809,0.000
1759592800.064,-1000.000,641.602,-3.418,-21.484,0.000
1759592800.068,-796.875,671.875,-31.250,-29.785,0.000
1759592800.072,-601.074,642.578,-40.527,-11.230,0.000
1759592800.076,-881.348,645.508,-4.883,39.551,0.000
1759592800.080,-1000.000,661.133,-16.602,22.461,0.000
1759592800.084,-909.668,648.926,-37.598,3.906,0.000
1759592800.088,-658.203,675.781,-74.219,-25.879,0.000
1759592800.092,-826.660,679.688,-69.336,-25.391,0.000
1759592800.096,-991.699,611.816,-25.879,34.668,0.000
1759592800.099,-729.492,604.980,-41.992,34.668,0.000
1759592800.103,-244.629,591.797,-48.828,32.715,0.000
1759592800.107,-260.742,553.711,-31.738,53.711,0.000
1759592800.111,-633.789,559.570,-34.668,46.875,0.000
1759592800.115,-591.797,565.430,-66.895,13.672,0.000
1759592800.119,-137.207,538.574,-104.004,-26.367,0.000
1759592800.123,151.367,477.539,-41.016,52.734,0.000
1759592800.127,-96.680,446.777,-1.465,101.562,0.000
1759592800.131,-191.895,488.770,-51.270,41.016,0.000
1759592800.135,211.426,477.539,-63.965,23.926,0.000
1759592800.138,575.684,401.367,-35.156,55.664,0.000
1759592800.142,287.598,397.461,-34.180,55.664,0.000
1759592800.146,81.543,389.648,-49.805,30.273,0.000
1759592800.150,380.371,417.480,-75.684,-14.648,0.000
1759592800.154,856.445,391.113,-51.270,13.672,0.000
1759592800.158,684.570,323.730,-54.199,10.742,0.000
1759592800.162,345.215,318.848,-61.523,4.395,0.000
1759592800.166,555.664,315.430,-13.184,64.453,0.000
1759592800.170,918.945,306.641,-14.648,59.082,0.000
1759592800.174,870.605,297.363,-29.297,52.246,0.000
1759592800.178,488.770,271.484,-34.180,52.246,0.000
1759592800.181,470.703,293.945,-51.758,15.137,0.000
1759592800.185,818.359,282.227,-48.828,6.836,0.000
1759592800.189,976.074,218.750,-30.762,30.762,0.000
1759592800.193,685.059,227.051,-30.273,21.484,0.000
1759592800.197,545.410,224.609,-23.438,15.137,0.000
1759592800.201,804.688,216.309,-21.973,23.438,0.000
1759592800.205,999.512,220.703,-34.180,19.531,0.000
1759592800.209,870.117,189.941,-31.738,20.996,0.000
1759592800.213,724.609,160.156,-25.391,35.156,0.000
1759592800.217,862.305,150.879,-28.809,27.344,0.000
1759592800.221,995.605,137.207,-30.762,21.484,0.000
1759592800.224,913.086,131.836,-36.133,16.113,0.000
1759592800.228,730.469,131.836,-33.203,14.648,0.000
1759592800.232,812.988,119.141,-29.785,18.066,0.000
1759592800.236,983.398,115.234,-33.203,8.301,0.000
1759592800.240,960.449,113.770,-34.180,9.766,0.000
1759592800.244,762.695,89.844,-32.227,20.020,0.000
1759592800.248,703.613,72.754,-32.227,17.578,0.000
1759592800.252,911.621,65.918,-25.391,26.367,0.000
1759592800.256,991.211,66.406,-29.297,23.438,0.000
1759592800.260,755.371,60.547,-38.574,20.508,0.000
1759592800.263,605.957,52.734,-41.504,30.273,0.000
1759592800.267,829.102,39.551,-39.551,33.203,0.000
1759592800.271,999.512,24.414,-31.250,36.133,0.000
1759592800.275,840.820,17.090,-28.320,26.855,0.000
1759592800.279,573.242,10.254,-34.668,22.461,0.000
1759592800.283,698.242,5.859,-31.250,34.668,0.000
1759592800.287,990.234,1.953,-20.996,29.785,0.000
1759592800.291,827.148,-0.488,-21.973,29.785,0.000
1759592800.295,432.617,0.977,-20.996,35.156,0.000
1759592800.299,417.480,-5.859,-19.043,32.227,0.000
1759592800.303,807.129,-16.113,-23.438,30.762,0.000
1759592800.306,854.492,-18.555,-27.344,31.250,0.000
1759592800.310,436.035,-25.391,-29.297,26.855,0.000
1759592800.314,341.797,-28.809,-27.344,24.902,0.000
1759592800.318,686.523,-29.785,-24.902,21.484,0.000
1759592800.322,882.812,-29.297,-21.484,19.531,0.000
1759592800.326,507.812,-22.949,-26.855,29.785,0.000
1759592800.330,267.090,-26.367,-23.926,24.902,0.000
1759592800.334,516.113,-35.156,-13.672,12.207,0.000
1759592800.338,823.242,-32.715,-18.066,22.461,0.000
1759592800.342,546.875,-29.297,-19.531,28.809,0.000
1759592800.346,199.707,-30.273,-18.555,24.902,0.000
1759592800.349,331.543,-31.738,-17.090,18.066,0.000
1759592800.353,704.590,-34.180,-14.160,12.207,0.000
1759592800.357,600.098,-41.504,-18.555,6.348,0.000
1759592800.361,194.824,-46.875,-19.531,1.465,0.000
1759592800.365,201.172,-43.457,-19.531,0.000,0.000
1759592800.369,580.078,-37.598,-19.531,5.371,0.000
1759592800.373,657.715,-37.598,-14.648,10.254,0.000
1759592800.377,231.934,-43.945,-8.301,0.000,0.000
1759592800.381,94.727,-47.363,-10.742,-7.324,0.000
1759592800.385,409.180,-44.922,-19.531,-8.789,0.000
1759592800.388,621.094,-51.270,-23.926,-7.324,0.000
1759592800.392,271.973,-61.523,-22.461,-2.441,0.000
1759592800.396,15.625,-53.223,-20.508,1.465,0.000
1759592800.400,235.352,-46.875,-20.020,-9.277,0.000
1759592800.404,559.570,-49.316,-20.020,-17.090,0.000
1759592800.408,331.055,-49.805,-20.508,-13.184,0.000
1759592800.412,-33.691,-44.922,-17.090,-14.160,0.000
1759592800.416,60.547,-47.852,-18.066,-11.719,0.000
1759592800.420,433.594,-52.734,-17.578,-12.207,0.000
1759592800.424,375.000,-48.828,-10.254,-15.625,0.000
1759592800.428,-34.668,-43.945,-11.719,-7.324,0.000
1759592800.431,-64.453,-41.504,-20.020,-7.324,0.000
1759592800.435,305.664,-45.410,-21.973,-14.160,0.000
1759592800.439,428.223,-42.969,-11.719,-16.113,0.000
1759592800.443,24.902,-40.039,-12.207,-13.672,0.000
1759592800.447,-135.742,-49.316,-21.484,-19.043,0.000
1759592800.451,170.410,-55.664,-18.555,-24.414,0.000
1759592800.455,426.758,-51.758,-19.043,-20.996,0.000
1759592800.459,101.562,-50.293,-23.438,-16.113,0.000
1759592800.463,-177.246,-51.758,-23.926,-6.836,0.000
1759592800.467,25.879,-48.828,-19.531,-6.836,0.000
1759592800.471,369.141,-45.898,-17.578,-8.789,0.000
1759592800.474,186.035,-48.340,-17.090,-3.418,0.000
1759592800.478,-186.523,-56.152,-17.578,-6.836,0.000
1759592800.482,-113.281,-60.547,-19.531,-16.113,0.000
1759592800.486,268.066,-64.453,-23.438,-18.555,0.000
1759592800.490,251.953,-62.500,-21.973,-21.973,0.000
1759592800.494,-158.691,-58.105,-19.043,-30.762,0.000
1759592800.498,-222.168,-61.523,-26.367,-38.086,0.000
1759592800.502,130.859,-66.895,-34.180,-38.574,0.000
1759592800.506,296.387,-66.895,-36.621,-21.973,0.000
1759592800.510,-77.148,-63.477,-24.902,-11.719,0.000
1759592800.513,-249.023,-61.523,-15.137,-15.137,0.000
1759592800.517,43.945,-59.570,-15.625,-14.648,0.000
1759592800.521,334.473,-56.641,-17.578,-16.113,0.000
1759592800.525,53.223,-54.199,-21.484,-14.648,0.000
1759592800.529,-244.141,-50.781,-13.184,-16.602,0.000
1759592800.533,-64.453,-50.781,-13.184,-21.484,0.000
1759592800.537,297.363,-57.129,-18.066,-13.672,0.000
1759592800.541,160.645,-54.199,-9.766,-14.160,0.000
1759592800.545,-203.125,-53.223,-10.254,-21.973,0.000
1759592800.549,-151.855,-62.012,-22.461,-24.414,0.000
1759592800.553,222.168,-62.500,-31.250,-24.902,0.000
1759592800.556,252.441,-59.082,-29.785,-18.555,0.000
1759592800.560,-148.926,-62.500,-26.855,-19.531,0.000
1759592800.564,-238.281,-62.500,-33.691,-23.438,0.000
1759592800.568,99.609,-59.570,-35.156,-24.902,0.000
1759592800.572,306.152,-54.688,-25.391,-30.273,0.000
1759592800.576,-42.480,-54.688,-23.438,-28.809,0.000
1759592800.580,-257.812,-58.594,-28.320,-26.367,0.000
1759592800.584,11.230,-56.641,-35.156,-25.391,0.000
1759592800.588,332.031,-57.129,-30.762,-21.484,0.000
1759592800.592,76.172,-57.617,-22.461,-18.066,0.000
1759592800.596,-250.977,-58.594,-21.484,-21.484,0.000
1759592800.599,-114.746,-59.082,-21.973,-30.273,0.000
1759592800.603,252.930,-54.199,-19.531,-35.156,0.000
1759592800.607,150.391,-50.293,-18.555,-30.762,0.000
1759592800.611,-243.164,-53.223,-23.438,-27.344,0.000
1759592800.615,-220.703,-61.523,-20.996,-26.367,0.000
1759592800.619,165.039,-55.176,-15.625,-23.438,0.000
1759592800.623,240.234,-47.852,-23.926,-19.043,0.000
1759592800.627,-156.738,-52.734,-23.926,-18.555,0.000
1759592800.631,-275.391,-53.223,-26.855,-32.715,0.000
1759592800.635,46.387,-55.664,-31.250,-39.551,0.000
1759592800.638,290.527,-47.852,-23.926,-25.879,0.000
1759592800.642,-34.668,-44.434,-23.926,-19.531,0.000
1759592800.646,-277.832,-50.781,-22.461,-24.414,0.000
1759592800.650,-47.363,-48.828,-23.438,-34.180,0.000
1759592800.654,286.621,-53.711,-30.762,-36.133,0.000
1759592800.658,74.219,-58.105,-32.227,-29.785,0.000
1759592800.662,-270.508,-45.898,-20.996,-31.738,0.000
1759592800.666,-152.344,-40.039,-12.207,-30.273,0.000
1759592800.670,240.723,-48.828,-13.184,-21.484,0.000
1759592800.674,183.594,-50.781,-15.137,-18.555,0.000
1759592800.678,-220.215,-43.457,-13.672,-23.926,0.000
1759592800.681,-243.652,-41.016,-14.160,-30.762,0.000
1759592800.685,109.863,-45.410,-27.344,-34.180,0.000
1759592800.689,224.609,-50.781,-36.133,-34.180,0.000
1759592800.693,-157.715,-45.410,-23.438,-30.762,0.000
1759592800.697,-303.711,-38.086,-13.672,-22.949,0.000
1759592800.701,-2.441,-47.363,-26.367,-16.602,0.000
1759592800.705,257.812,-50.781,-31.738,-27.832,0.000
1759592800.709,-48.340,-41.992,-19.531,-36.133,0.000
1759592800.713,-319.336,-45.898,-24.414,-30.762,0.000
1759592800.717,-110.352,-55.664,-32.715,-28.320,0.000
1759592800.721,237.793,-57.129,-28.320,-30.273,0.000
1759592800.724,66.406,-59.570,-22.949,-29.785,0.000
1759592800.728,-298.828,-52.246,-18.555,-32.715,0.000
1759592800.732,-207.520,-45.410,-25.879,-39.062,0.000
1759592800.736,193.848,-48.340,-25.391,-29.785,0.000
1759592800.740,165.039,-47.363,-23.926,-28.320,0.000
1759592800.744,-239.258,-44.922,-31.738,-29.297,0.000
1759592800.748,-280.273,-44.922,-23.438,-28.320,0.000
1759592800.752,67.871,-48.828,-18.066,-42.480,0.000
1759592800.756,219.727,-54.199,-20.996,-49.805,0.000
1759592800.760,-144.043,-53.223,-24.902,-35.645,0.000
1759592800.763,-317.871,-49.805,-22.461,-28.809,0.000
1759592800.767,-25.879,-46.387,-13.672,-35.645,0.000
1759592800.771,265.625,-41.016,-14.160,-34.180,0.000
1759592800.775,-18.555,-39.551,-20.020,-30.273,0.000
1759592800.779,-321.289,-35.156,-25.879,-30.762,0.000
1759592800.783,-141.113,-36.133,-25.879,-32.715,0.000
1759592800.787,223.633,-37.109,-17.578,-34.668,0.000
1759592800.791,80.566,-34.180,-20.020,-26.367,0.000
1759592800.795,-295.410,-39.551,-18.066,-20.020,0.000
1759592800.799,-252.441,-34.180,-12.695,-34.668,0.000
1759592800.803,135.742,-24.414,-17.578,-28.809,0.000
1759592800.806,185.547,-31.250,-15.137,-17.578,0.000
1759592800.810,-208.984,-41.504,-15.137,-21.973,0.000
1759592800.814,-290.039,-35.156,-13.672,-23.438,0.000
1759592800.818,47.852,-28.809,-12.695,-27.832,0.000
1759592800.822,241.211,-34.668,-18.066,-32.715,0.000
1759592800.826,-106.934,-41.016,-20.020,-31.738,0.000
1759592800.830,-311.035,-40.527,-18.555,-23.438,0.000
1759592800.834,-47.852,-37.598,-15.625,-18.066,0.000
1759592800.838,269.531,-34.180,-13.184,-4.883,0.000
1759592800.842,21.484,-34.180,-11.230,-5.371,0.000
1759592800.845,-303.223,-33.203,-12.207,-15.625,0.000
1759592800.849,-157.715,-30.273,-18.066,-21.973,0.000
1759592800.853,210.938,-35.156,-26.367,-31.738,0.000
1759592800.857,116.211,-37.598,-21.973,-30.762,0.000
1759592800.861,-257.812,-40.527,-12.695,-22.461,0.000
1759592800.865,-239.746,-42.969,-20.508,-23.926,0.000
1759592800.869,138.184,-39.062,-16.602,-20.020,0.000
1759592800.873,215.332,-32.715,-10.742,-19.043,0.000
1759592800.877,-179.199,-33.691,-13.672,-19.043,0.000
1759592800.881,-282.227,-37.109,-17.578,-2.930,0.000
1759592800.885,43.945,-29.297,-14.648,1.953,0.000
1759592800.888,268.066,-35.645,-9.277,-6.836,0.000
1759592800.892,-63.965,-44.434,-8.301,-3.418,0.000
1759592800.896,-296.387,-36.621,-3.418,-10.254,0.000
1759592800.900,-65.918,-34.180,-19.043,-22.949,0.000
1759592800.904,249.023,-41.992,-28.809,-27.344,0.000
1759592800.908,51.758,-44.434,-14.160,-21.484,0.000
1759592800.912,-278.320,-36.133,-17.578,-17.578,0.000
1759592800.916,-164.062,-35.156,-18.555,-19.531,0.000
1759592800.920,195.801,-41.016,-10.254,-21.973,0.000
1759592800.924,130.859,-40.527,-18.066,-18.066,0.000
1759592800.928,-240.723,-40.527,-25.879,-18.066,0.000
1759592800.931,-263.184,-42.480,-20.996,-32.715,0.000
1759592800.935,103.516,-45.410,-12.207,-36.621,0.000
1759592800.939,218.750,-44.434,-13.184,-33.203,0.000
1759592800.943,-164.062,-41.992,-14.160,-34.668,0.000
1759592800.947,-307.617,-41.504,-20.508,-46.387,0.000
1759592800.951,-3.418,-37.109,-23.438,-44.922,0.000
1759592800.955,264.648,-38.574,-14.648,-24.902,0.000
1759592800.959,-38.086,-39.062,-13.672,-25.391,0.000
1759592800.963,-303.711,-41.992,-9.277,-25.879,0.000
1759592800.967,-95.215,-38.086,-3.418,-18.066,0.000
1759592800.970,248.047,-33.691,-6.348,-14.648,0.000
1759592800.974,67.383,-37.109,-9.766,-14.648,0.000
1759592800.978,-283.691,-41.992,-10.254,-29.785,0.000
1759592800.982,-190.430,-44.434,-14.160,-37.109,0.000
1759592800.986,195.312,-37.109,-13.672,-28.809,0.000
1759592800.990,178.223,-32.715,-7.812,-22.461,0.000
1759592800.994,-226.562,-34.668,-14.648,-28.320,0.000
1759592800.998,-267.090,-39.062,-18.555,-28.809,0.000
1759592801.002,95.703,-46.387,-17.090,-27.344,0.000
1759592801.006,243.652,-40.039,-20.020,-27.344,0.000
1759592801.010,-127.441,-35.645,-20.996,-28.320,0.000
1759592801.013,-299.805,-39.062,-22.949,-30.273,0.000
1759592801.017,-22.949,-41.504,-23.926,-28.320,0.000
1759592801.021,263.184,-42.969,-16.602,-20.020,0.000
1759592801.025,-11.719,-45.898,-13.184,-18.066,0.000
1759592801.029,-306.152,-48.340,-18.555,-19.043,0.000
1759592801.033,-128.418,-41.016,-21.973,-17.578,0.000
1759592801.037,219.727,-41.504,-27.832,-41.016,0.000
1759592801.041,37.109,-16.113,-41.016,-69.336,0.000
1759592801.045,-309.570,-14.648,-21.973,-36.133,0.000
1759592801.049,-204.590,-53.711,5.371,-2.441,0.000
1759592801.053,174.805,-55.176,0.977,-8.789,0.000
1759592801.056,156.250,-58.105,-25.391,-46.875,0.000
1759592801.060,-282.227,-9.766,-49.805,-78.125,0.000
1759592801.064,-322.266,8.789,-36.133,-43.945,0.000
1759592801.068,50.293,-38.086,-14.160,-22.949,0.000
1759592801.072,221.680,-28.809,-21.484,-42.969,0.000
1759592801.076,-128.418,-10.254,-20.996,-29.297,0.000
1759592801.080,-294.434,-46.875,5.371,2.441,0.000
1759592801.084,-56.152,-43.457,9.766,-34.668,0.000
1759592801.088,189.941,-5.371,-29.297,-96.680,0.000
1759592801.092,-81.055,-8.301,-39.062,-119.629,0.000
1759592801.095,-370.605,0.000,1.953,-93.750,0.000
1759592801.099,-223.633,26.855,7.812,-102.539,0.000
1759592801.103,112.305,-0.977,7.324,-126.465,0.000
1759592801.107,-8.789,-8.789,22.461,-129.883,0.000
1759592801.111,-414.062,0.488,13.672,-150.391,0.000
1759592801.115,-438.965,-7.324,-36.621,-206.055,0.000
1759592801.119,-50.781,-17.090,-28.809,-205.566,0.000
1759592801.123,125.000,-35.645,55.664,-114.746,0.000
1759592801.127,-317.383,-5.859,43.457,-165.039,0.000
1759592801.131,-474.121,58.105,20.508,-212.402,0.000
1759592801.135,-99.121,2.441,27.344,-188.965,0.000
1759592801.138,127.930,-47.852,8.301,-207.520,0.000
1759592801.142,-155.762,-24.414,52.246,-151.855,0.000
1759592801.146,-399.902,-0.977,60.059,-143.555,0.000
1759592801.150,-177.246,-2.930,38.086,-166.992,0.000
1759592801.154,178.223,-60.059,44.434,-132.812,0.000
1759592801.158,-89.844,-3.906,16.602,-168.945,0.000
1759592801.162,-438.477,1.465,10.742,-186.035,0.000
1759592801.166,-245.117,-60.547,44.922,-124.512,0.000
1759592801.170,165.039,-5.859,47.852,-112.793,0.000
1759592801.174,48.828,37.109,30.273,-124.512,0.000
1759592801.178,-360.840,5.859,27.832,-104.492,0.000
1759592801.181,-339.844,-23.926,36.133,-94.727,0.000
1759592801.185,-16.113,3.906,2.930,-131.348,0.000
1759592801.189,77.148,-11.230,-30.273,-129.395,0.000
1759592801.193,-254.395,-29.785,30.762,-31.250,0.000
1759592801.197,-487.305,32.227,12.695,-70.801,0.000
1759592801.201,-253.906,45.898,-21.973,-117.676,0.000
1759592801.205,53.711,-0.977,15.137,-40.039,0.000
1759592801.209,-269.043,3.906,-0.488,-33.203,0.000
1759592801.213,-655.762,36.621,-27.832,-45.898,0.000
1759592801.217,-568.848,24.414,-36.621,-44.922,0.000
1759592801.220,-183.594,5.371,-42.969,-31.250,0.000
1759592801.224,-260.742,36.133,-32.227,6.836,0.000
1759592801.228,-600.586,76.660,-57.617,-28.809,0.000
1759592801.232,-421.387,62.500,-62.988,-31.738,0.000
1759592801.236,76.172,43.457,-46.875,12.207,0.000
1759592801.240,78.613,51.758,-51.758,13.672,0.000
1759592801.244,-312.988,49.316,-58.594,-3.906,0.000
1759592801.248,-300.781,46.875,-82.520,-26.855,0.000
1759592801.252,181.641,36.621,-57.617,7.324,0.000
1759592801.256,398.926,32.715,-26.855,69.824,0.000
1759592801.260,-54.199,58.105,-54.199,50.781,0.000
1759592801.263,-258.301,59.570,-57.617,21.484,0.000
1759592801.267,21.973,52.246,-67.871,-0.977,0.000
1759592801.271,260.742,76.660,-74.219,-10.254,0.000
1759592801.275,-9.277,57.129,-47.363,26.855,0.000
1759592801.279,-285.645,26.367,-51.270,20.508,0.000
1759592801.283,-65.918,22.461,-61.035,17.090,0.000
1759592801.287,385.254,46.387,-39.551,47.852,0.000
1759592801.291,259.277,70.312,-44.434,37.109,0.000
1759592801.295,-141.602,65.918,-58.594,9.766,0.000
1759592801.299,-62.012,47.852,-48.828,24.414,0.000
1759592801.303,379.883,37.109,-29.785,60.059,0.000
1759592801.306,395.020,45.410,-31.738,38.086,0.000
1759592801.310,-31.738,31.738,-38.086,25.391,0.000
1759592801.314,-119.141,36.621,-42.969,29.297,0.000
1759592801.318,196.289,83.984,-68.359,-10.742,0.000
1759592801.322,433.105,53.711,-45.410,13.672,0.000
1759592801.326,116.211,-0.488,-10.254,61.523,0.000
1759592801.330,-108.887,8.789,-20.020,46.387,0.000
1759592801.334,166.016,18.066,-33.203,31.738,0.000
1759592801.338,502.930,25.391,-41.016,27.832,0.000
1759592801.342,224.121,28.320,-35.156,31.250,0.000
1759592801.345,-60.059,25.391,-38.574,29.785,0.000
1759592801.349,187.988,22.461,-40.527,26.855,0.000
1759592801.353,620.605,15.625,-34.180,32.227,0.000
1759592801.357,520.020,11.230,-33.691,27.832,0.000
1759592801.361,88.867,8.789,-40.527,33.203,0.000
1759592801.365,116.699,9.277,-37.598,38.574,0.000
1759592801.369,522.949,11.719,-28.809,32.715,0.000
1759592801.373,569.336,2.441,-27.832,41.504,0.000
1759592801.377,134.277,-8.301,-20.996,44.434,0.000
1759592801.381,14.160,-16.113,-18.555,38.086,0.000
1759592801.385,329.102,-20.508,-24.902,35.645,0.000
1759592801.388,551.758,-23.438,-21.484,42.969,0.000
1759592801.392,203.125,-25.391,-14.160,47.852,0.000
1759592801.396,-16.113,-24.902,-12.207,41.992,0.000
1759592801.400,257.324,-34.180,-13.184,41.992,0.000
1759592801.404,598.633,-39.551,-18.555,43.945,0.000
1759592801.408,381.348,-40.039,-20.996,48.828,0.000
1759592801.412,52.246,-45.410,-18.066,42.969,0.000
1759592801.416,205.078,-45.410,-20.508,38.574,0.000
1759592801.420,616.211,-49.316,-23.438,36.133,0.000
1759592801.424,544.434,-50.781,-24.414,32.227,0.000
1759592801.428,125.488,-50.781,-16.113,30.762,0.000
1759592801.431,109.863,-52.246,-12.695,28.809,0.000
1759592801.435,466.309,-51.270,-16.113,29.297,0.000
1759592801.439,551.758,-53.223,-13.672,29.785,0.000
1759592801.443,152.832,-56.641,-7.324,27.832,0.000
1759592801.447,0.488,-65.430,-9.766,17.578,0.000
1759592801.451,311.035,-66.895,-17.578,18.555,0.000
1759592801.455,563.477,-69.824,-14.160,23.926,0.000
1759592801.459,236.816,-73.730,-12.207,17.578,0.000
1759592801.463,-36.621,-67.383,-21.484,21.484,0.000
1759592801.467,172.852,-68.359,-23.438,17.578,0.000
1759592801.470,517.090,-73.730,-21.973,5.859,0.000
1759592801.474,311.035,-70.801,-23.438,0.000,0.000
1759592801.478,-63.477,-70.312,-24.902,-1.953,0.000
1759592801.482,27.832,-73.730,-22.461,-2.441,0.000
1759592801.486,415.527,-74.707,-19.043,-1.953,0.000
1759592801.490,377.441,-73.730,-19.531,-7.324,0.000
1759592801.494,-43.457,-68.848,-22.461,-5.859,0.000
1759592801.498,-94.727,-69.336,-22.461,1.465,0.000
1759592801.502,264.648,-73.730,-25.879,-7.812,0.000
1759592801.506,407.715,-67.383,-33.691,-18.555,0.000
1759592801.510,9.766,-70.312,-35.645,-18.066,0.000
1759592801.513,-165.039,-76.660,-31.250,-15.137,0.000
1759592801.517,132.324,-74.707,-25.391,-19.043,0.000
1759592801.521,408.203,-74.219,-25.391,-19.531,0.000
1759592801.525,107.422,-66.895,-24.902,-12.695,0.000
1759592801.529,-188.477,-68.359,-23.438,-16.602,0.000
1759592801.533,-1.465,-71.777,-24.414,-21.973,0.000
1759592801.537,364.258,-66.895,-32.715,-15.137,0.000
1759592801.541,207.520,-65.918,-38.086,-3.418,0.000
1759592801.545,-177.246,-66.895,-34.180,-8.789,0.000
1759592801.549,-118.652,-59.570,-26.855,-27.344,0.000
1759592801.553,273.438,-54.688,-23.438,-25.391,0.000
1759592801.556,291.992,-57.129,-20.996,-7.812,0.000
1759592801.560,-123.535,-60.059,-20.020,-6.348,0.000
1759592801.564,-199.707,-59.082,-21.484,-20.508,0.000
1759592801.568,151.367,-58.105,-20.996,-20.996,0.000
1759592801.572,337.402,-56.641,-17.578,-2.930,0.000
1759592801.576,-36.621,-57.129,-18.555,0.488,0.000
1759592801.580,-228.027,-59.082,-23.438,-10.742,0.000
1759592801.584,53.223,-57.617,-24.414,-13.184,0.000
1759592801.588,346.680,-53.223,-22.949,-5.859,0.000
1759592801.592,89.844,-53.711,-14.160,-10.254,0.000
1759592801.595,-224.121,-50.781,-8.789,-15.137,0.000
1759592801.599,-67.871,-42.480,-9.766,-9.766,0.000
1759592801.603,309.570,-49.316,-11.230,-7.324,0.000
1759592801.607,195.312,-48.828,-7.812,-9.277,0.000
1759592801.611,-199.219,-47.363,-8.789,-10.742,0.000
1759592801.615,-175.781,-51.758,-9.766,-6.348,0.000
1759592801.619,203.613,-57.617,-7.324,-8.789,0.000
1759592801.623,250.000,-66.406,-11.719,-15.625,0.000
1759592801.627,-155.762,-61.523,-9.766,-13.672,0.000
1759592801.631,-259.277,-58.594,-13.184,-8.789,0.000
1759592801.635,78.125,-62.988,-17.090,-9.766,0.000
1759592801.638,310.547,-62.988,-11.230,-15.137,0.000
1759592801.642,-39.551,-55.664,-15.625,-15.137,0.000
1759592801.646,-263.184,-49.805,-20.508,-18.555,0.000
1759592801.650,-16.602,-53.223,-29.785,-25.879,0.000
1759592801.654,304.199,-61.523,-26.367,-21.973,0.000
1759592801.658,88.379,-61.523,-13.672,-12.695,0.000
1759592801.662,-245.117,-56.152,-20.020,-13.184,0.000
1759592801.666,-115.234,-54.688,-27.832,-24.414,0.000
1759592801.670,248.047,-51.270,-36.133,-26.367,0.000
1759592801.674,167.969,-53.711,-39.062,-26.855,0.000
1759592801.677,-201.172,-54.688,-39.062,-21.484,0.000
1759592801.681,-214.355,-59.082,-32.715,-21.484,0.000
1759592801.685,150.391,-57.129,-20.020,-26.367,0.000
1759592801.689,252.930,-53.223,-19.043,-18.555,0.000
1759592801.693,-146.973,-53.711,-20.996,-16.602,0.000
1759592801.697,-280.273,-51.270,-18.555,-20.020,0.000
1759592801.701,37.109,-49.805,-18.555,-20.996,0.000
1759592801.705,290.527,-48.340,-20.020,-14.648,0.000
1759592801.709,-27.832,-50.293,-20.020,-11.719,0.000
1759592801.713,-293.457,-57.129,-21.484,-17.090,0.000
1759592801.717,-83.496,-62.012,-25.391,-21.973,0.000
1759592801.720,260.742,-55.176,-22.461,-10.254,0.000
1759592801.724,69.336,-53.711,-16.113,-3.906,0.000
1759592801.728,-291.992,-58.105,-14.160,-18.555,0.000
1759592801.732,-205.078,-57.617,-18.066,-27.832,0.000
1759592801.736,180.664,-58.105,-21.973,-24.414,0.000
1759592801.740,157.715,-56.152,-16.602,-25.879,0.000
1759592801.744,-250.000,-52.246,-14.160,-24.414,0.000
1759592801.748,-291.504,-52.246,-14.160,-19.043,0.000
1759592801.752,75.195,-49.316,-12.695,-19.043,0.000
1759592801.756,220.703,-50.293,-15.625,-28.809,0.000
1759592801.760,-148.926,-54.688,-14.648,-32.227,0.000
1759592801.763,-309.082,-54.199,-15.137,-30.273,0.000
1759592801.767,-28.320,-52.734,-21.484,-28.320,0.000
1759592801.771,249.023,-54.688,-22.949,-26.855,0.000
1759592801.775,-34.180,-57.617,-20.996,-21.484,0.000
1759592801.779,-322.754,-55.664,-24.414,-20.508,0.000
1759592801.783,-134.277,-58.105,-20.996,-18.066,0.000
1759592801.787,242.676,-52.734,-11.230,-25.391,0.000
1759592801.791,89.355,-50.293,-16.113,-34.180,0.000
1759592801.795,-294.922,-55.664,-15.625,-22.461,0.000
1759592801.799,-231.934,-60.547,-14.648,-27.832,0.000
1759592801.803,156.250,-62.500,-17.578,-33.691,0.000
1759592801.806,170.898,-60.547,-24.414,-29.297,0.000
1759592801.810,-237.305,-63.965,-30.273,-29.785,0.000
1759592801.814,-312.500,-64.941,-32.227,-34.180,0.000
1759592801.818,41.016,-58.105,-30.762,-33.691,0.000
1759592801.822,230.957,-55.664,-28.320,-31.250,0.000
1759592801.826,-123.047,-54.199,-26.855,-20.020,0.000
1759592801.830,-318.359,-55.176,-21.484,-20.020,0.000
1759592801.834,-49.316,-51.270,-13.672,-28.809,0.000
1759592801.838,254.883,-47.363,-17.090,-30.273,0.000
1759592801.842,-1.465,-46.875,-23.438,-30.273,0.000
1759592801.845,-310.547,-48.340,-21.484,-26.855,0.000
1759592801.849,-160.645,-53.223,-24.902,-31.738,0.000
1759592801.853,208.984,-56.641,-29.297,-31.250,0.000
1759592801.857,99.121,-57.129,-28.809,-30.273,0.000
1759592801.861,-290.039,-59.570,-28.320,-39.551,0.000
1759592801.865,-265.137,-63.965,-27.344,-43.945,0.000
1759592801.869,126.465,-58.105,-29.297,-30.762,0.000
1759592801.873,199.707,-56.641,-23.438,-17.090,0.000
1759592801.877,-198.730,-53.223,-9.766,-20.020,0.000
1759592801.881,-307.129,-53.711,-13.184,-24.902,0.000
1759592801.885,23.438,-57.617,-22.949,-30.762,0.000
1759592801.888,240.234,-51.758,-26.367,-31.250,0.000
1759592801.892,-97.168,-49.316,-23.926,-23.926,0.000
1759592801.896,-320.801,-49.805,-23.926,-18.066,0.000
1759592801.900,-66.406,-48.828,-25.879,-11.719,0.000
1759592801.904,251.465,-57.617,-27.832,-17.090,0.000
1759592801.908,13.672,-58.594,-24.902,-21.973,0.000
1759592801.912,-322.266,-55.664,-25.879,-25.879,0.000
1759592801.916,-197.754,-62.500,-31.250,-22.461,0.000
1759592801.920,188.965,-63.477,-27.344,-17.578,0.000
1759592801.924,120.605,-55.664,-20.996,-27.832,0.000
1759592801.927,-274.414,-52.734,-27.344,-31.738,0.000
1759592801.931,-270.996,-55.176,-28.809,-30.762,0.000
1759592801.935,109.863,-52.734,-22.949,-23.926,0.000
1759592801.939,212.402,-50.293,-25.879,-22.949,0.000
1759592801.943,-176.758,-48.828,-28.320,-26.367,0.000
1759592801.947,-306.641,-48.340,-24.414,-22.949,0.000
1759592801.951,13.184,-48.828,-24.902,-25.391,0.000
1759592801.955,253.418,-48.828,-27.344,-27.344,0.000
1759592801.959,-73.730,-56.152,-28.320,-26.855,0.000
1759592801.963,-324.219,-61.523,-32.715,-21.484,0.000
1759592801.967,-98.145,-57.129,-27.344,-20.508,0.000
1759592801.970,245.605,-54.688,-24.902,-31.250,0.000
1759592801.974,48.828,-52.734,-30.273,-33.691,0.000
1759592801.978,-309.570,-40.527,-32.227,-29.297,0.000
1759592801.982,-210.938,-44.434,-28.809,-21.484,0.000
1759592801.986,168.945,-48.340,-24.902,-25.879,0.000
1759592801.990,134.766,-41.016,-21.973,-36.621,0.000
1759592801.994,-259.766,-44.922,-22.949,-38.086,0.000
1759592801.998,-296.387,-48.828,-26.855,-34.668,0.000
1759592802.002,54.688,-45.898,-28.320,-41.992,0.000
1759592802.006,202.637,-48.340,-28.809,-32.227,0.000
1759592802.010,-156.738,-60.547,-24.902,-14.648,0.000
1759592802.013,-332.520,-55.664,-17.090,-24.902,0.000
1759592802.017,-61.035,-47.363,-22.949,-35.645,0.000
1759592802.021,214.355,-46.875,-26.855,-34.180,0.000
1759592802.025,-62.988,-43.457,-20.996,-28.809,0.000
1759592802.029,-337.891,-46.875,-17.578,-24.902,0.000
1759592802.033,-145.020,-48.828,-14.160,-25.391,0.000
1759592802.037,210.938,-50.293,-16.602,-24.414,0.000
1759592802.041,51.758,-46.875,-21.484,-30.273,0.000
1759592802.045,-327.148,-15.625,-35.156,-50.781,0.000
1759592802.049,-255.859,-20.508,-38.086,-43.457,0.000
1759592802.052,146.973,-53.223,-34.668,-23.438,0.000
1759592802.056,148.438,-51.270,-36.133,-33.203,0.000
1759592802.060,-243.652,-39.062,-22.461,-39.551,0.000
1759592802.064,-335.449,-20.020,-38.086,-56.152,0.000
1759592802.068,-3.906,-30.762,-42.969,-64.941,0.000
1759592802.072,223.633,-53.223,-16.602,-36.133,0.000
1759592802.076,-113.770,-25.879,-21.484,-37.598,0.000
1759592802.080,-360.352,21.973,-55.664,-77.148,0.000
1759592802.084,-95.215,-23.926,-58.594,-80.566,0.000
1759592802.088,260.254,-105.469,-19.531,-44.922,0.000
1759592802.092,-25.391,-46.387,0.977,-25.391,0.000
1759592802.095,-386.230,12.207,-17.578,-47.363,0.000
1759592802.099,-283.691,2.441,-65.430,-122.070,0.000
1759592802.103,105.957,-9.766,-51.270,-116.699,0.000
1759592802.107,62.500,-21.484,8.789,-55.176,0.000
1759592802.111,-354.980,-15.625,-12.207,-74.707,0.000
1759592802.115,-352.051,63.965,-51.270,-160.645,0.000
1759592802.119,90.820,27.344,-38.086,-190.918,0.000
1759592802.123,96.191,-20.020,-1.953,-142.090,0.000
1759592802.127,-437.988,32.715,-2.930,-166.992,0.000
1759592802.131,-532.227,31.250,-10.742,-192.871,0.000
1759592802.135,-132.324,-23.926,22.949,-130.371,0.000
1759592802.138,37.598,19.043,12.207,-135.742,0.000
1759592802.142,-333.008,38.086,-2.441,-141.113,0.000
1759592802.146,-526.855,-13.672,17.090,-118.164,0.000
1759592802.150,-315.430,-19.043,-11.230,-156.250,0.000
1759592802.154,-3.418,14.648,-20.020,-159.180,0.000
1759592802.158,-228.516,57.129,8.301,-119.629,0.000
1759592802.162,-616.211,24.902,7.812,-112.305,0.000
1759592802.166,-576.660,13.672,14.160,-95.703,0.000
1759592802.170,-395.996,53.223,16.113,-92.285,0.000
1759592802.174,-572.266,52.734,-14.648,-118.652,0.000
1759592802.177,-877.441,41.504,-19.531,-109.375,0.000
1759592802.181,-718.262,26.855,25.879,-31.250,0.000
1759592802.185,-285.645,36.621,20.508,-28.809,0.000
1759592802.189,-248.047,40.527,-14.160,-56.152,0.000
1759592802.193,-721.191,74.219,-44.922,-85.938,0.000
1759592802.197,-820.312,51.270,-33.203,-68.848,0.000
1759592802.201,-428.711,10.742,-5.371,-13.184,0.000
1759592802.205,-171.875,21.973,-1.465,3.906,0.000
1759592802.209,-558.594,23.438,-17.090,-20.508,0.000
1759592802.213,-866.211,62.988,-43.945,-47.852,0.000
1759592802.217,-560.547,39.062,-23.438,-10.254,0.000
1759592802.220,-197.754,-22.949,-30.273,-12.695,0.000
1759592802.224,-411.621,2.441,-39.062,-15.137,0.000
1759592802.228,-684.570,32.715,-8.301,20.996,0.000
1759592802.232,-562.988,17.090,-20.020,-0.488,0.000
1759592802.236,-182.617,37.598,-40.039,-24.902,0.000
1759592802.240,-226.562,23.926,-30.273,-0.977,0.000
1759592802.244,-662.109,-1.953,-33.691,-6.836,0.000
1759592802.248,-639.648,-3.418,-29.785,3.906,0.000
1759592802.252,-116.699,-20.508,-7.812,38.086,0.000
1759592802.256,132.324,11.230,-27.344,7.324,0.000
1759592802.260,-117.676,16.602,-32.715,13.672,0.000
1759592802.263,-131.836,-14.648,-24.902,33.691,0.000
1759592802.267,222.168,15.137,-37.598,5.859,0.000
1759592802.271,527.832,41.504,-55.176,-25.391,0.000
1759592802.275,309.082,25.391,-52.734,-16.113,0.000
1759592802.279,270.508,0.977,-30.273,8.789,0.000
1759592802.283,690.918,-38.574,-12.207,39.062,0.000
1759592802.287,999.512,-12.207,-21.484,28.809,0.000
1759592802.291,861.816,13.672,-35.645,15.137,0.000
1759592802.295,587.402,10.254,-50.781,0.488,0.000
1759592802.299,744.629,4.395,-47.363,-10.254,0.000
1759592802.302,991.211,-12.207,-23.926,19.531,0.000
1759592802.306,952.148,-10.254,-22.949,23.438,0.000
1759592802.310,779.297,-5.371,-31.250,10.254,0.000
1759592802.314,815.430,-8.789,-28.809,15.137,0.000
1759592802.318,968.262,5.371,-27.832,15.137,0.000
1759592802.322,986.328,1.465,-26.367,15.137,0.000
1759592802.326,875.488,-12.207,-23.926,20.508,0.000
1759592802.330,787.109,-5.371,-23.438,24.414,0.000
1759592802.334,919.434,4.395,-30.762,16.113,0.000
1759592802.338,993.652,-6.836,-34.180,16.113,0.000
1759592802.342,908.691,-1.953,-28.809,17.090,0.000
1759592802.345,843.262,-9.766,-28.809,17.090,0.000
1759592802.349,944.336,-33.691,-29.297,21.484,0.000
1759592802.353,977.539,-27.344,-31.738,16.113,0.000
1759592802.357,964.844,-14.648,-24.902,10.742,0.000
1759592802.361,970.215,-11.230,-18.066,4.883,0.000
1759592802.365,969.238,-20.996,-20.020,15.625,0.000
1759592802.369,969.238,-20.996,-18.555,24.414,0.000
1759592802.373,969.238,-18.066,-18.066,22.461,0.000
1759592802.377,969.238,-17.578,-21.484,17.090,0.000
1759592802.381,969.727,-22.461,-20.996,29.785,0.000
1759592802.385,968.262,-27.344,-16.602,29.785,0.000
1759592802.388,971.191,-27.344,-9.766,9.766,0.000
1759592802.392,966.309,-34.668,-8.301,8.789,0.000
1759592802.396,956.543,-39.551,-12.207,13.184,0.000
1759592802.400,959.473,-37.598,-13.672,20.508,0.000
