timestamps,TP9,AF7,AF8,TP10,Right AUX
1759631031.570,-10.742,-42.480,-38.086,-19.531,0.000
1759631031.574,18.555,-42.969,-39.551,-5.371,0.000
1759631031.578,-47.852,-44.922,-39.551,-23.926,0.000
1759631031.582,-73.242,-44.434,-34.180,-30.762,0.000
1759631031.586,-24.902,-41.016,-35.645,-21.484,0.000
1759631031.590,28.809,-43.457,-37.109,-7.812,0.000
1759631031.594,-13.672,-45.410,-27.832,-26.367,0.000
1759631031.598,-71.777,-42.969,-28.320,-43.945,0.000
1759631031.602,-48.828,-41.992,-34.180,-26.367,0.000
1759631031.606,19.043,-41.992,-35.156,3.906,0.000
1759631031.609,-12.695,-36.133,-36.621,-21.973,0.000
1759631031.613,-82.031,-32.227,-35.156,-49.316,0.000
1759631031.617,-69.824,-39.062,-33.203,-38.574,0.000
1759631031.621,-4.395,-46.387,-36.133,-18.066,0.000
1759631031.625,-2.441,-40.527,-38.574,-22.461,0.000
1759631031.629,-68.359,-34.180,-32.715,-41.992,0.000
1759631031.633,-68.359,-38.086,-31.250,-33.203,0.000
1759631031.637,-20.996,-41.016,-37.109,-18.066,0.000
1759631031.641,6.836,-37.109,-38.086,-16.113,0.000
1759631031.645,-43.457,-38.574,-32.715,-32.227,0.000
1759631031.649,-71.777,-41.504,-29.785,-27.832,0.000
1759631031.652,-39.551,-42.969,-33.203,-15.137,0.000
1759631031.656,2.441,-41.016,-39.062,-15.625,0.000
1759631031.660,-32.227,-39.062,-31.738,-29.297,0.000
1759631031.664,-76.172,-39.551,-29.297,-36.133,0.000
1759631031.668,-55.176,-44.434,-35.645,-36.133,0.000
1759631031.672,7.812,-43.457,-31.250,-17.578,0.000
1759631031.676,-9.277,-41.016,-28.809,-19.043,0.000
1759631031.680,-83.008,-41.992,-30.273,-42.969,0.000
1759631031.684,-78.613,-44.922,-28.320,-36.621,0.000
1759631031.688,-15.625,-47.852,-34.180,-14.648,0.000
1759631031.691,-1.465,-45.410,-35.156,-13.184,0.000
1759631031.695,-59.570,-46.387,-28.809,-35.645,0.000
1759631031.699,-77.637,-44.922,-30.762,-50.781,0.000
1759631031.703,-30.273,-41.992,-39.551,-37.109,0.000
1759631031.707,5.371,-40.527,-43.457,-21.484,0.000
1759631031.711,-45.898,-39.551,-37.109,-34.668,0.000
1759631031.715,-84.961,-44.434,-37.598,-41.504,0.000
1759631031.719,-41.016,-49.805,-40.527,-21.973,0.000
1759631031.723,19.531,-47.363,-43.457,-6.836,0.000
1759631031.727,-28.320,-40.039,-45.410,-32.715,0.000
1759631031.731,-85.449,-40.527,-42.480,-45.410,0.000
1759631031.734,-64.453,-44.922,-43.945,-40.039,0.000
1759631031.738,7.812,-42.480,-44.922,-16.113,0.000
1759631031.742,4.883,-39.062,-40.039,-16.602,0.000
1759631031.746,-77.637,-43.457,-41.016,-56.641,0.000
1759631031.750,-79.590,-45.898,-46.387,-55.176,0.000
1759631031.754,-10.742,-45.410,-49.316,-26.367,0.000
1759631031.758,3.906,-41.504,-45.410,-20.996,0.000
1759631031.762,-59.082,-38.574,-43.457,-39.062,0.000
1759631031.766,-83.496,-36.621,-45.898,-41.016,0.000
1759631031.770,-35.156,-36.621,-43.945,-23.926,0.000
1759631031.773,22.949,-34.180,-40.039,-17.090,0.000
1759631031.777,-32.227,-31.250,-34.668,-38.086,0.000
1759631031.781,-76.660,-38.574,-30.762,-41.992,0.000
1759631031.785,-34.180,-42.480,-34.668,-19.531,0.000
1759631031.789,16.602,-41.016,-36.621,-2.930,0.000
1759631031.793,-17.578,-43.457,-37.109,-26.367,0.000
1759631031.797,-74.219,-46.875,-40.527,-43.457,0.000
1759631031.801,-69.336,-49.805,-38.574,-35.156,0.000
1759631031.805,-2.930,-48.828,-40.039,-16.602,0.000
1759631031.809,8.789,-41.504,-33.691,-16.602,0.000
1759631031.813,-64.453,-39.062,-27.344,-43.457,0.000
1759631031.817,-75.195,-41.992,-34.180,-45.898,0.000
1759631031.820,-11.230,-41.992,-38.574,-19.043,0.000
1759631031.824,19.043,-42.480,-37.109,-16.113,0.000
1759631031.828,-43.457,-44.434,-39.551,-47.363,0.000
1759631031.832,-75.684,-45.410,-41.016,-53.223,0.000
1759631031.836,-30.762,-47.363,-41.016,-31.250,0.000
1759631031.840,21.484,-38.574,-42.480,-12.207,0.000
1759631031.844,-14.160,-29.785,-41.504,-27.832,0.000
1759631031.848,-65.430,-32.715,-38.574,-52.734,0.000
1759631031.852,-40.039,-33.203,-40.527,-48.340,0.000
1759631031.856,34.180,-37.109,-40.527,-18.066,0.000
1759631031.860,4.395,-42.969,-40.039,-33.203,0.000
1759631031.863,-72.266,-42.480,-44.434,-54.688,0.000
1759631031.867,-60.547,-39.062,-43.457,-39.062,0.000
1759631031.871,11.719,-39.062,-41.504,-16.113,0.000
1759631031.875,24.414,-39.062,-41.504,-16.113,0.000
1759631031.879,-47.852,-38.574,-38.086,-37.598,0.000
1759631031.883,-71.289,-37.598,-37.598,-43.457,0.000
1759631031.887,-9.766,-36.621,-39.062,-16.602,0.000
1759631031.891,28.809,-41.016,-41.504,-6.836,0.000
1759631031.895,-46.875,-40.039,-44.922,-37.598,0.000
1759631031.898,-89.844,-38.574,-46.387,-49.316,0.000
1759631031.903,-28.320,-40.527,-41.992,-25.391,0.000
1759631031.906,32.227,-39.062,-37.598,-1.465,0.000
1759631031.910,-13.672,-36.621,-37.598,-27.344,0.000
1759631031.914,-73.242,-40.039,-35.156,-41.992,0.000
1759631031.918,-49.316,-40.527,-37.109,-28.320,0.000
1759631031.922,23.926,-36.621,-39.062,-5.859,0.000
1759631031.926,2.441,-37.109,-36.133,-23.926,0.000
1759631031.930,-65.918,-33.691,-33.691,-45.410,0.000
1759631031.934,-61.523,-36.133,-37.109,-37.109,0.000
1759631031.938,3.906,-41.504,-38.086,-18.555,0.000
1759631031.941,23.926,-41.016,-40.039,-21.973,0.000
1759631031.945,-43.945,-36.621,-38.086,-48.828,0.000
1759631031.949,-70.312,-39.551,-36.133,-51.270,0.000
1759631031.953,-22.949,-44.434,-41.016,-30.273,0.000
1759631031.957,15.625,-41.016,-43.457,-20.996,0.000
1759631031.961,-35.645,-40.039,-45.410,-47.852,0.000
1759631031.965,-64.941,-36.621,-41.992,-49.805,0.000
1759631031.969,-30.273,-37.598,-38.574,-23.438,0.000
1759631031.973,20.020,-43.457,-41.016,-6.836,0.000
1759631031.977,-10.742,-45.410,-40.039,-24.902,0.000
1759631031.981,-72.754,-49.805,-36.621,-43.945,0.000
1759631031.984,-62.988,-48.340,-40.527,-51.758,0.000
1759631031.988,24.414,-47.363,-50.781,-20.020,0.000
1759631031.992,28.809,-53.711,-44.922,-7.812,0.000
1759631031.996,-59.082,-54.199,-32.227,-41.016,0.000
1759631032.000,-83.984,-59.082,-24.902,-50.781,0.000
1759631032.004,-26.367,-68.359,-19.043,-25.391,0.000
1759631032.008,2.441,-78.613,-21.484,-10.254,0.000
1759631032.012,-62.012,-85.449,-19.043,-28.320,0.000
1759631032.016,-76.660,-95.215,-17.578,-26.855,0.000
1759631032.020,-25.391,-106.445,-17.090,-4.395,0.000
1759631032.024,17.578,-104.492,-8.789,26.367,0.000
1759631032.027,-24.414,-103.516,-1.465,24.902,0.000
1759631032.031,-73.730,-108.398,2.930,2.930,0.000
1759631032.035,-29.297,-108.398,4.395,20.996,0.000
1759631032.039,56.641,-105.469,4.395,55.176,0.000
1759631032.043,22.461,-95.215,-0.977,22.461,0.000
1759631032.047,-60.547,-89.355,-7.812,-10.254,0.000
1759631032.051,-59.570,-92.773,-9.277,0.488,0.000
1759631032.055,18.066,-90.820,-17.090,20.508,0.000
1759631032.059,14.648,-81.543,-20.508,17.578,0.000
1759631032.063,-53.223,-77.148,-20.020,-4.883,0.000
1759631032.066,-46.875,-75.684,-22.949,-2.930,0.000
1759631032.070,16.602,-76.172,-22.949,17.578,0.000
1759631032.074,34.668,-73.242,-25.879,15.625,0.000
1759631032.078,-33.691,-69.336,-20.996,-6.836,0.000
1759631032.082,-58.105,-71.289,-20.508,-18.066,0.000
1759631032.086,-8.789,-66.895,-26.855,-5.371,0.000
1759631032.090,33.691,-63.477,-30.762,9.277,0.000
1759631032.094,-4.883,-65.430,-26.367,-4.395,0.000
1759631032.098,-55.176,-65.430,-23.438,-15.137,0.000
1759631032.102,-37.598,-66.406,-27.344,-8.789,0.000
1759631032.106,36.133,-66.895,-25.879,17.578,0.000
1759631032.109,15.137,-61.523,-25.391,9.277,0.000
1759631032.113,-54.199,-65.430,-29.297,-14.160,0.000
1759631032.117,-53.711,-70.801,-32.227,-9.766,0.000
1759631032.121,14.648,-62.012,-32.227,14.160,0.000
1759631032.125,25.391,-51.270,-29.297,13.184,0.000
1759631032.129,-42.480,-52.734,-27.344,-10.742,0.000
1759631032.133,-55.664,-55.176,-29.297,-12.695,0.000
1759631032.137,3.906,-53.223,-30.273,5.371,0.000
1759631032.141,44.922,-49.805,-29.785,11.230,0.000
1759631032.145,-20.020,-47.852,-27.832,-8.301,0.000
1759631032.148,-71.289,-54.688,-33.691,-26.367,0.000
1759631032.152,-16.602,-52.246,-34.668,-10.742,0.000
1759631032.156,51.270,-44.922,-29.297,20.508,0.000
1759631032.160,-4.883,-53.711,-29.785,12.695,0.000
1759631032.164,-68.848,-56.152,-34.180,-12.695,0.000
1759631032.168,-43.945,-48.340,-36.133,-16.602,0.000
1759631032.172,23.438,-53.711,-36.133,4.883,0.000
1759631032.176,-0.488,-54.199,-34.668,-6.348,0.000
1759631032.180,-74.219,-48.828,-33.203,-31.250,0.000
1759631032.184,-65.430,-56.641,-37.598,-30.273,0.000
1759631032.188,0.000,-55.176,-40.039,-13.184,0.000
1759631032.191,13.184,-46.875,-36.621,-11.230,0.000
1759631032.195,-44.922,-54.199,-29.785,-18.555,0.000
1759631032.199,-46.387,-54.199,-31.250,-11.230,0.000
1759631032.203,0.000,-43.457,-45.898,-12.207,0.000
1759631032.207,13.672,-36.621,-50.293,-26.855,0.000
1759631032.211,-57.617,-32.715,-45.898,-58.105,0.000
1759631032.215,-95.215,-37.598,-38.086,-60.547,0.000
1759631032.219,-41.504,-39.551,-32.715,-33.691,0.000
1759631032.223,10.742,-42.969,-40.527,-25.879,0.000
1759631032.227,-34.668,-47.363,-42.969,-45.898,0.000
1759631032.231,-83.984,-47.363,-41.992,-57.617,0.000
1759631032.234,-53.711,-48.828,-42.969,-50.781,0.000
1759631032.238,14.160,-48.340,-45.898,-26.855,0.000
1759631032.242,-3.418,-41.992,-44.922,-28.809,0.000
1759631032.246,-63.965,-41.504,-40.039,-48.828,0.000
1759631032.250,-65.430,-44.434,-37.109,-39.062,0.000
1759631032.254,-2.441,-42.969,-34.668,-17.578,0.000
1759631032.258,16.113,-37.109,-33.203,-17.090,0.000
1759631032.262,-50.293,-34.668,-34.180,-32.227,0.000
1759631032.266,-66.406,-36.133,-35.645,-29.297,0.000
1759631032.270,-15.137,-37.109,-42.969,-19.531,0.000
1759631032.273,29.297,-36.133,-44.434,-15.625,0.000
1759631032.277,-19.043,-33.203,-34.180,-19.043,0.000
1759631032.281,-66.406,-33.691,-32.227,-23.926,0.000
1759631032.285,-38.086,-38.086,-38.086,-27.832,0.000
1759631032.289,30.762,-33.691,-36.133,-5.859,0.000
1759631032.293,-1.465,-35.645,-29.297,-12.695,0.000
1759631032.297,-62.500,-41.016,-29.297,-32.715,0.000
1759631032.301,-44.922,-38.574,-37.598,-23.926,0.000
1759631032.305,20.996,-40.039,-40.527,0.977,0.000
1759631032.309,14.648,-42.480,-34.668,4.883,0.000
1759631032.313,-62.500,-40.039,-35.156,-17.090,0.000
1759631032.316,-70.312,-38.086,-41.504,-33.691,0.000
1759631032.320,0.488,-35.645,-41.504,-22.949,0.000
1759631032.324,20.996,-35.645,-44.434,-20.508,0.000
1759631032.328,-57.617,-35.156,-39.551,-37.598,0.000
1759631032.332,-88.867,-42.480,-38.574,-46.387,0.000
1759631032.336,-31.738,-54.199,-48.340,-26.367,0.000
1759631032.340,26.367,-50.293,-47.852,-4.883,0.000
1759631032.344,-23.926,-47.363,-43.945,-23.926,0.000
1759631032.348,-77.637,-48.828,-42.480,-26.367,0.000
1759631032.352,-37.598,-42.969,-39.551,-5.371,0.000
1759631032.356,32.715,-40.039,-37.109,18.555,0.000
1759631032.359,2.441,-40.039,-39.062,-5.371,0.000
1759631032.363,-67.383,-38.086,-39.062,-34.668,0.000
1759631032.367,-57.617,-38.574,-37.109,-29.785,0.000
1759631032.371,11.719,-42.480,-37.598,-12.207,0.000
1759631032.375,11.719,-41.504,-41.504,-23.926,0.000
1759631032.379,-62.012,-37.598,-41.504,-52.246,0.000
1759631032.383,-68.359,-32.715,-39.551,-51.270,0.000
1759631032.387,-2.930,-33.691,-38.086,-29.297,0.000
1759631032.391,27.832,-35.645,-34.668,-9.766,0.000
1759631032.395,-43.457,-41.016,-34.668,-30.762,0.000
1759631032.398,-71.777,-44.434,-36.621,-32.715,0.000
1759631032.402,-25.391,-43.457,-41.992,-13.672,0.000
1759631032.406,20.508,-42.969,-43.457,-13.672,0.000
1759631032.410,-22.461,-33.691,-38.086,-40.039,0.000
1759631032.414,-79.590,-31.738,-35.156,-62.012,0.000
1759631032.418,-50.293,-34.668,-39.062,-50.293,0.000
1759631032.422,28.809,-27.832,-40.527,-20.020,0.000
1759631032.426,13.184,-29.297,-33.203,-27.832,0.000
1759631032.430,-63.965,-41.016,-32.227,-56.152,0.000
1759631032.434,-61.035,-43.945,-37.109,-58.105,0.000
1759631032.438,19.043,-44.922,-36.133,-25.879,0.000
1759631032.441,29.297,-46.387,-33.691,-16.602,0.000
1759631032.445,-49.316,-43.457,-34.180,-38.574,0.000
1759631032.449,-70.312,-39.062,-36.133,-43.457,0.000
1759631032.453,-11.719,-37.109,-36.621,-22.461,0.000
1759631032.457,24.414,-39.062,-37.109,-10.254,0.000
1759631032.461,-40.039,-40.527,-35.156,-42.969,0.000
1759631032.465,-72.266,-40.039,-33.691,-51.758,0.000
1759631032.469,-20.020,-36.621,-31.738,-27.344,0.000
1759631032.473,27.832,-37.598,-33.691,-8.301,0.000
1759631032.477,-12.695,-37.598,-37.598,-28.809,0.000
1759631032.481,-67.383,-38.574,-30.762,-45.898,0.000
1759631032.484,-55.176,-40.039,-30.762,-39.551,0.000
1759631032.488,19.531,-42.480,-44.434,-11.719,0.000
1759631032.492,15.137,-42.480,-47.852,-16.602,0.000
1759631032.496,-54.688,-43.945,-47.363,-53.711,0.000
1759631032.500,-59.082,-45.898,-51.270,-40.527,0.000
1759631032.504,0.000,-43.457,-49.805,-17.090,0.000
1759631032.508,16.113,-40.527,-49.316,-21.973,0.000
1759631032.512,-56.641,-39.062,-47.363,-47.363,0.000
1759631032.516,-78.613,-35.156,-41.992,-50.781,0.000
1759631032.520,-12.207,-32.715,-43.457,-25.391,0.000
1759631032.523,20.020,-39.062,-46.875,-18.066,0.000
1759631032.527,-42.969,-38.574,-44.434,-42.969,0.000
1759631032.531,-82.520,-40.527,-45.410,-50.781,0.000
1759631032.535,-50.781,-49.805,-51.758,-32.715,0.000
1759631032.539,7.324,-47.363,-56.152,-24.902,0.000
1759631032.543,-27.344,-43.945,-48.828,-40.039,0.000
1759631032.547,-80.566,-41.992,-40.039,-39.062,0.000
1759631032.551,-60.059,-43.945,-41.504,-34.180,0.000
1759631032.555,-0.488,-43.945,-46.875,-27.344,0.000
1759631032.559,6.836,-41.992,-45.898,-23.438,0.000
1759631032.563,-66.895,-42.969,-41.016,-40.039,0.000
1759631032.566,-74.219,-41.504,-36.621,-41.016,0.000
1759631032.570,2.441,-39.551,-39.062,-19.531,0.000
1759631032.574,21.484,-38.574,-38.574,-12.207,0.000
1759631032.578,-50.781,-37.109,-36.621,-29.785,0.000
1759631032.582,-83.984,-41.504,-39.062,-43.457,0.000
1759631032.586,-34.180,-44.922,-40.039,-31.250,0.000
1759631032.590,21.484,-44.922,-39.551,-4.395,0.000
1759631032.594,-23.438,-41.016,-34.180,-15.137,0.000
1759631032.598,-74.707,-38.086,-32.715,-29.785,0.000
1759631032.602,-41.992,-41.016,-31.250,-9.766,0.000
1759631032.606,21.484,-39.062,-29.297,12.207,0.000
1759631032.609,-7.324,-34.668,-30.762,-8.789,0.000
1759631032.613,-68.848,-37.109,-29.297,-26.367,0.000
1759631032.617,-56.641,-41.504,-26.367,-16.602,0.000
1759631032.621,5.371,-47.363,-28.320,10.742,0.000
1759631032.625,8.789,-47.852,-28.809,10.254,0.000
1759631032.629,-50.293,-46.387,-29.785,-16.602,0.000
1759631032.633,-71.289,-45.410,-31.738,-21.973,0.000
1759631032.637,-19.531,-48.828,-29.785,-4.883,0.000
1759631032.641,16.602,-45.410,-29.785,5.859,0.000
1759631032.645,-46.387,-41.504,-30.762,-31.250,0.000
1759631032.648,-83.496,-46.875,-29.785,-41.992,0.000
1759631032.652,-31.738,-47.363,-28.320,-9.766,0.000
1759631032.656,27.832,-45.410,-26.855,9.766,0.000
1759631032.660,-22.949,-45.898,-25.391,-18.066,0.000
1759631032.664,-77.637,-41.992,-23.438,-28.809,0.000
1759631032.668,-39.551,-41.504,-23.438,-10.254,0.000
1759631032.672,29.785,-42.480,-23.438,5.371,0.000
1759631032.676,-8.789,-36.133,-19.043,-7.812,0.000
1759631032.680,-77.637,-39.551,-23.926,-33.691,0.000
1759631032.684,-65.430,-43.945,-25.879,-20.508,0.000
1759631032.688,-5.859,-40.527,-28.320,2.441,0.000
1759631032.691,-6.836,-33.691,-33.203,-11.230,0.000
1759631032.695,-70.312,-33.203,-26.367,-33.203,0.000
1759631032.699,-72.266,-38.574,-25.879,-27.344,0.000
1759631032.703,-5.859,-38.574,-33.691,-7.812,0.000
1759631032.707,29.785,-37.109,-36.621,-10.254,0.000
1759631032.711,-41.992,-40.527,-31.738,-43.945,0.000
1759631032.715,-83.984,-42.480,-31.738,-53.711,0.000
1759631032.719,-41.016,-41.016,-34.668,-47.852,0.000
1759631032.723,0.000,-46.387,-38.574,-37.109,0.000
1759631032.727,-47.852,-49.316,-36.621,-48.828,0.000
1759631032.731,-92.773,-45.410,-34.668,-54.199,0.000
1759631032.734,-65.430,-41.992,-38.086,-43.457,0.000
1759631032.738,-2.930,-45.898,-35.645,-27.832,0.000
1759631032.742,-23.926,-49.805,-35.645,-42.969,0.000
1759631032.746,-88.867,-51.758,-40.039,-63.965,0.000
1759631032.750,-86.914,-51.270,-44.922,-62.988,0.000
1759631032.754,-24.902,-48.828,-45.898,-40.527,0.000
1759631032.758,-5.371,-46.387,-43.945,-33.691,0.000
1759631032.762,-67.383,-44.434,-41.504,-54.199,0.000
1759631032.766,-88.379,-44.434,-41.504,-57.617,0.000
1759631032.770,-38.086,-45.410,-44.922,-42.480,0.000
1759631032.773,11.230,-40.527,-43.457,-20.996,0.000
1759631032.777,-48.340,-38.574,-44.434,-46.875,0.000
1759631032.781,-97.656,-41.992,-43.945,-66.406,0.000
1759631032.785,-55.176,-41.016,-41.992,-50.781,0.000
1759631032.789,11.230,-43.457,-45.410,-34.668,0.000
1759631032.793,-20.020,-41.504,-43.457,-43.945,0.000
1759631032.797,-83.984,-36.621,-41.016,-55.664,0.000
1759631032.801,-66.895,-42.969,-40.527,-48.340,0.000
1759631032.805,3.418,-43.945,-44.922,-33.203,0.000
1759631032.809,2.930,-37.598,-43.945,-39.062,0.000
1759631032.813,-65.430,-37.109,-42.480,-54.688,0.000
1759631032.816,-73.242,-40.527,-43.457,-38.574,0.000
1759631032.820,-7.812,-38.086,-48.340,-16.113,0.000
1759631032.824,9.766,-33.691,-47.852,-23.438,0.000
1759631032.828,-56.152,-38.086,-39.062,-46.875,0.000
1759631032.832,-74.707,-48.828,-38.086,-47.363,0.000
1759631032.836,-30.273,-54.688,-43.945,-31.250,0.000
1759631032.840,18.066,-48.340,-44.434,-17.578,0.000
1759631032.844,-26.855,-44.434,-42.480,-39.551,0.000
1759631032.848,-77.148,-48.828,-42.480,-55.176,0.000
1759631032.852,-37.109,-54.199,-42.480,-28.809,0.000
1759631032.855,36.621,-53.711,-44.434,-3.906,0.000
1759631032.859,4.883,-44.434,-38.086,-24.902,0.000
1759631032.863,-62.012,-42.969,-33.691,-33.691,0.000
1759631032.867,-48.828,-49.316,-36.133,-26.855,0.000
1759631032.871,20.020,-46.387,-40.039,-13.672,0.000
1759631032.875,23.926,-43.457,-38.086,-8.301,0.000
1759631032.879,-54.199,-46.387,-39.062,-38.086,0.000
1759631032.883,-68.848,-45.898,-43.945,-42.480,0.000
1759631032.887,-5.371,-45.410,-41.992,-17.090,0.000
1759631032.891,35.156,-42.969,-41.016,1.953,0.000
1759631032.895,-28.320,-40.527,-39.551,-20.996,0.000
1759631032.898,-72.266,-42.969,-44.922,-42.480,0.000
1759631032.902,-22.949,-43.945,-48.828,-20.996,0.000
1759631032.906,34.668,-43.457,-42.480,2.441,0.000
1759631032.910,-14.160,-41.504,-44.434,-21.973,0.000
1759631032.914,-76.172,-44.434,-50.293,-44.434,0.000
1759631032.918,-48.340,-47.852,-49.316,-33.691,0.000
1759631032.922,21.973,-46.387,-49.316,-12.695,0.000
1759631032.926,1.953,-41.992,-46.387,-20.996,0.000
1759631032.930,-59.570,-39.551,-47.363,-43.945,0.000
1759631032.934,-50.781,-36.133,-45.898,-38.574,0.000
1759631032.938,12.207,-35.156,-45.410,-13.184,0.000
1759631032.941,12.695,-34.668,-48.340,-22.949,0.000
1759631032.945,-66.895,-35.156,-43.945,-54.199,0.000
1759631032.949,-79.590,-36.621,-42.480,-54.688,0.000
1759631032.953,-21.973,-42.969,-48.828,-32.715,0.000
1759631032.957,11.719,-43.945,-53.711,-27.344,0.000
1759631032.961,-50.781,-36.621,-52.246,-55.176,0.000
1759631032.965,-80.078,-32.227,-46.875,-56.641,0.000
1759631032.969,-23.438,-34.668,-49.316,-36.133,0.000
1759631032.973,26.855,-35.645,-54.199,-25.391,0.000
1759631032.977,-26.855,-35.645,-50.781,-45.898,0.000
1759631032.981,-80.078,-32.227,-45.898,-54.199,0.000
1759631032.984,-44.922,-30.273,-45.898,-40.039,0.000
1759631032.988,21.973,-27.832,-43.457,-18.066,0.000
1759631032.992,3.906,-24.414,-36.621,-26.855,0.000
1759631032.996,-54.688,-29.785,-36.621,-43.457,0.000
1759631033.000,-47.363,-30.273,-39.551,-26.855,0.000
1759631033.004,9.277,-33.203,-41.992,-4.395,0.000
1759631033.008,24.902,-35.645,-41.504,-6.836,0.000
1759631033.012,-42.969,-34.180,-35.156,-22.949,0.000
1759631033.016,-75.684,-35.645,-30.273,-22.949,0.000
1759631033.020,-20.996,-31.250,-34.668,-11.230,0.000
1759631033.023,26.367,-33.691,-33.203,0.977,0.000
1759631033.027,-39.551,-41.992,-27.832,-26.855,0.000
1759631033.031,-83.984,-39.062,-28.320,-38.086,0.000
1759631033.035,-32.227,-38.086,-29.297,-20.020,0.000
1759631033.039,26.367,-36.621,-27.832,-6.836,0.000
1759631033.043,-14.160,-31.250,-27.832,-24.414,0.000
1759631033.047,-62.012,-32.227,-31.250,-37.109,0.000
1759631033.051,-52.734,-40.039,-35.645,-32.227,0.000
1759631033.055,-0.488,-42.969,-38.574,-14.648,0.000
1759631033.059,5.859,-36.133,-32.715,-5.371,0.000
1759631033.062,-63.477,-41.992,-32.715,-32.227,0.000
1759631033.066,-68.848,-50.293,-36.133,-39.062,0.000
1759631033.070,-2.441,-44.922,-33.203,-1.953,0.000
1759631033.074,9.766,-51.270,-33.203,6.348,0.000
1759631033.078,-38.574,-57.617,-31.250,2.441,0.000
1759631033.082,-46.387,-38.574,-41.016,4.395,0.000
1759631033.086,-15.625,-24.414,-51.758,-18.066,0.000
1759631033.090,6.348,-21.973,-47.852,-28.320,0.000
1759631033.094,-56.152,-17.090,-45.898,-57.129,0.000
1759631033.098,-113.281,-15.625,-54.199,-89.355,0.000
1759631033.102,-86.426,-10.254,-55.664,-84.961,0.000
1759631033.105,-37.598,-8.789,-57.617,-78.125,0.000
1759631033.109,-80.566,-1.953,-61.523,-111.328,0.000
1759631033.113,-147.461,0.977,-62.988,-134.766,0.000
1759631033.117,-133.301,0.488,-73.730,-132.812,0.000
1759631033.121,-63.965,0.488,-78.613,-123.535,0.000
1759631033.125,-62.012,-2.441,-68.359,-124.023,0.000
1759631033.129,-121.582,-2.930,-61.035,-125.000,0.000
1759631033.133,-122.070,-12.695,-62.988,-117.188,0.000
1759631033.137,-46.387,-19.043,-65.430,-90.332,0.000
1759631033.141,-8.301,-8.789,-61.035,-73.242,0.000
1759631033.145,-72.266,-7.812,-52.246,-87.402,0.000
1759631033.148,-97.168,-16.113,-51.270,-70.801,0.000
1759631033.152,-46.387,-13.672,-57.617,-48.828,0.000
1759631033.156,-0.977,-10.254,-63.477,-46.875,0.000
1759631033.160,-56.641,-14.648,-59.082,-61.523,0.000
1759631033.164,-98.145,-18.066,-55.664,-67.383,0.000
1759631033.168,-57.129,-17.090,-56.641,-54.199,0.000
1759631033.172,2.441,-15.137,-54.688,-31.250,0.000
1759631033.176,-16.602,-15.137,-48.340,-40.039,0.000
1759631033.180,-70.801,-15.625,-45.410,-54.688,0.000
1759631033.184,-59.082,-21.484,-50.781,-49.316,0.000
1759631033.188,6.348,-21.973,-57.129,-33.203,0.000
1759631033.191,10.742,-18.555,-55.664,-24.902,0.000
1759631033.195,-49.805,-20.020,-50.293,-37.109,0.000
1759631033.199,-60.547,-24.902,-54.199,-49.805,0.000
1759631033.203,-11.230,-29.785,-61.523,-36.133,0.000
1759631033.207,15.137,-25.391,-56.152,-18.066,0.000
1759631033.211,-41.992,-26.855,-49.805,-43.457,0.000
1759631033.215,-76.172,-33.691,-51.270,-49.805,0.000
1759631033.219,-29.785,-31.250,-48.828,-25.391,0.000
1759631033.223,30.273,-25.879,-47.363,-5.371,0.000
1759631033.227,-21.484,-27.344,-47.363,-24.414,0.000
1759631033.230,-81.055,-30.273,-45.898,-43.457,0.000
1759631033.234,-51.758,-33.203,-45.410,-31.738,0.000
1759631033.238,19.531,-29.785,-43.945,-7.812,0.000
1759631033.242,0.000,-28.809,-41.992,-18.066,0.000
1759631033.246,-76.172,-36.133,-44.434,-50.293,0.000
1759631033.250,-66.406,-34.668,-48.340,-52.246,0.000
1759631033.254,0.488,-33.691,-48.828,-23.438,0.000
1759631033.258,11.719,-32.715,-44.434,-20.508,0.000
1759631033.262,-56.152,-33.691,-42.969,-46.387,0.000
1759631033.266,-71.289,-38.574,-43.945,-37.109,0.000
1759631033.270,-20.020,-36.133,-50.781,-18.555,0.000
1759631033.273,19.531,-33.691,-55.176,-11.230,0.000
1759631033.277,-29.297,-31.250,-51.270,-31.250,0.000
1759631033.281,-63.965,-28.809,-47.852,-37.109,0.000
1759631033.285,-26.367,-34.180,-45.410,-16.602,0.000
1759631033.289,22.949,-32.227,-51.758,-9.277,0.000
1759631033.293,-16.113,-33.203,-52.246,-34.180,0.000
1759631033.297,-68.848,-34.668,-49.316,-42.969,0.000
1759631033.301,-49.316,-28.809,-54.199,-36.621,0.000
1759631033.305,9.277,-28.809,-53.711,-23.926,0.000
1759631033.309,0.000,-30.762,-47.852,-27.832,0.000
1759631033.313,-68.359,-34.668,-49.805,-48.828,0.000
1759631033.316,-71.777,-36.133,-57.129,-52.246,0.000
1759631033.320,-0.488,-31.250,-59.082,-37.109,0.000
1759631033.324,20.996,-27.832,-52.734,-26.367,0.000
1759631033.328,-42.480,-28.809,-43.457,-38.086,0.000
1759631033.332,-72.754,-35.645,-46.387,-49.316,0.000
1759631033.336,-32.227,-41.504,-48.828,-45.410,0.000
1759631033.340,13.184,-42.969,-46.387,-34.180,0.000
1759631033.344,-33.203,-44.434,-44.434,-45.410,0.000
1759631033.348,-80.566,-41.992,-39.062,-57.129,0.000
1759631033.351,-44.434,-39.551,-38.574,-52.246,0.000
1759631033.356,21.973,-37.598,-41.504,-27.832,0.000
1759631033.359,-15.137,-41.016,-43.945,-35.156,0.000
1759631033.363,-79.590,-40.039,-42.480,-53.711,0.000
1759631033.367,-54.199,-37.109,-41.504,-43.945,0.000
1759631033.371,11.719,-39.551,-47.852,-17.578,0.000
1759631033.375,-3.906,-40.039,-49.805,-20.996,0.000
1759631033.379,-70.801,-38.574,-45.898,-45.410,0.000
1759631033.383,-71.777,-34.668,-46.875,-42.969,0.000
1759631033.387,-4.395,-38.574,-45.898,-16.113,0.000
1759631033.391,21.484,-43.457,-47.363,-12.695,0.000
1759631033.394,-44.922,-41.992,-49.805,-44.434,0.000
1759631033.398,-70.312,-38.086,-42.480,-47.363,0.000
1759631033.402,-20.996,-35.156,-37.109,-22.461,0.000
1759631033.406,27.832,-36.621,-37.598,-6.348,0.000
1759631033.410,-26.855,-40.527,-41.504,-34.180,0.000
1759631033.414,-81.055,-40.527,-39.551,-47.363,0.000
1759631033.418,-49.805,-36.133,-38.086,-36.621,0.000
1759631033.422,16.602,-35.156,-41.016,-23.926,0.000
1759631033.426,-17.578,-37.109,-35.645,-42.480,0.000
1759631033.430,-82.031,-40.039,-32.227,-66.406,0.000
1759631033.434,-68.359,-45.410,-36.133,-50.781,0.000
1759631033.437,-2.441,-46.387,-47.363,-33.691,0.000
1759631033.441,1.953,-40.527,-41.016,-46.875,0.000
1759631033.445,-68.359,-41.992,-28.809,-59.570,0.000
1759631033.449,-76.660,-46.875,-33.691,-49.805,0.000
1759631033.453,-23.438,-41.992,-39.062,-29.785,0.000
1759631033.457,3.906,-38.086,-43.457,-28.320,0.000
1759631033.461,-52.734,-40.039,-38.574,-48.828,0.000
1759631033.465,-83.984,-46.387,-34.180,-48.828,0.000
1759631033.469,-38.086,-44.434,-38.086,-35.156,0.000
1759631033.473,16.602,-40.527,-39.062,-27.832,0.000
1759631033.477,-32.715,-42.480,-36.621,-47.852,0.000
1759631033.480,-80.566,-45.410,-35.645,-54.199,0.000
1759631033.484,-58.105,-41.016,-37.109,-50.293,0.000
1759631033.488,0.488,-39.551,-39.062,-39.062,0.000
1759631033.492,-14.648,-44.922,-34.180,-44.434,0.000
1759631033.496,-87.402,-44.922,-33.203,-63.477,0.000
1759631033.500,-81.055,-45.410,-34.668,-60.059,0.000
1759631033.504,-15.625,-48.340,-32.227,-27.832,0.000
1759631033.508,1.953,-44.922,-26.855,-19.043,0.000
1759631033.512,-62.988,-40.527,-24.902,-47.363,0.000
1759631033.516,-83.984,-40.527,-22.461,-47.852,0.000
1759631033.520,-28.809,-38.086,-23.926,-20.020,0.000
1759631033.523,15.137,-39.062,-25.879,1.953,0.000
1759631033.527,-50.293,-43.945,-24.414,-27.344,0.000
1759631033.531,-89.844,-40.527,-24.902,-42.969,0.000
1759631033.535,-38.086,-34.668,-25.391,-27.344,0.000
1759631033.539,15.625,-38.574,-29.785,-12.695,0.000
1759631033.543,-27.344,-43.945,-27.344,-25.391,0.000
1759631033.547,-83.496,-43.945,-26.855,-46.875,0.000
1759631033.551,-61.035,-41.992,-26.855,-40.527,0.000
1759631033.555,4.883,-42.969,-33.203,-26.367,0.000
1759631033.559,-8.789,-44.434,-38.086,-45.410,0.000
1759631033.562,-85.938,-48.340,-32.227,-62.988,0.000
1759631033.566,-82.031,-44.434,-28.809,-48.340,0.000
1759631033.570,0.000,-42.969,-35.645,-25.879,0.000
1759631033.574,2.441,-42.480,-39.551,-30.273,0.000
1759631033.578,-77.637,-35.156,-33.203,-49.805,0.000
1759631033.582,-86.426,-32.227,-29.297,-44.434,0.000
1759631033.586,-22.461,-31.738,-29.785,-22.461,0.000
1759631033.590,25.879,-30.762,-30.762,-12.695,0.000
1759631033.594,-27.832,-32.715,-23.438,-37.109,0.000
1759631033.598,-69.824,-36.133,-21.484,-46.387,0.000
1759631033.602,-46.875,-40.527,-31.250,-36.621,0.000
1759631033.605,9.766,-38.086,-31.738,-20.996,0.000
1759631033.609,-19.531,-35.156,-28.320,-31.738,0.000
1759631033.613,-81.543,-39.551,-28.809,-47.363,0.000
1759631033.617,-65.430,-43.945,-31.738,-46.387,0.000
1759631033.621,1.953,-41.992,-35.645,-33.203,0.000
1759631033.625,-2.930,-39.062,-29.785,-33.691,0.000
1759631033.629,-75.684,-42.969,-26.367,-55.664,0.000
1759631033.633,-82.031,-44.922,-29.785,-51.758,0.000
1759631033.637,-18.555,-48.340,-37.109,-29.297,0.000
1759631033.641,9.766,-49.805,-40.527,-25.391,0.000
1759631033.644,-47.363,-40.527,-37.109,-47.852,0.000
1759631033.648,-75.195,-43.457,-40.039,-59.570,0.000
1759631033.652,-25.391,-52.246,-43.945,-43.457,0.000
1759631033.656,34.668,-49.805,-40.527,-18.555,0.000
1759631033.660,-21.973,-44.922,-40.527,-38.086,0.000
1759631033.664,-76.172,-44.434,-40.527,-53.711,0.000
1759631033.668,-36.621,-44.434,-41.016,-38.086,0.000
1759631033.672,17.090,-43.457,-41.016,-11.719,0.000
1759631033.676,-11.719,-40.527,-36.133,-20.020,0.000
1759631033.680,-74.219,-39.062,-37.109,-53.223,0.000
1759631033.684,-57.129,-39.062,-38.086,-46.875,0.000
1759631033.687,19.043,-41.016,-39.062,-16.602,0.000
1759631033.691,27.344,-36.621,-35.645,-16.113,0.000
1759631033.695,-46.387,-35.156,-37.109,-35.645,0.000
1759631033.699,-59.570,-41.504,-38.086,-35.156,0.000
1759631033.703,11.230,-42.969,-33.203,-10.742,0.000
1759631033.707,32.227,-39.551,-35.645,-8.789,0.000
1759631033.711,-43.457,-36.621,-35.645,-37.109,0.000
1759631033.715,-69.336,-36.621,-35.645,-43.457,0.000
1759631033.719,-17.090,-37.598,-32.715,-17.090,0.000
1759631033.723,32.715,-35.645,-34.180,-4.883,0.000
1759631033.726,-20.508,-30.762,-39.062,-36.133,0.000
1759631033.731,-74.707,-34.180,-36.621,-47.852,0.000
1759631033.734,-43.457,-34.668,-38.086,-36.621,0.000
1759631033.738,17.090,-37.598,-45.410,-25.879,0.000
1759631033.742,1.465,-35.645,-39.062,-37.598,0.000
1759631033.746,-56.152,-30.273,-35.156,-45.410,0.000
1759631033.750,-55.176,-32.227,-33.203,-29.297,0.000
1759631033.754,-3.418,-37.598,-32.715,-10.254,0.000
1759631033.758,4.395,-38.086,-39.062,-18.555,0.000
1759631033.762,-56.641,-37.109,-35.156,-40.039,0.000
1759631033.766,-69.336,-37.109,-29.297,-36.621,0.000
1759631033.769,-15.625,-40.527,-38.574,-26.855,0.000
1759631033.773,14.648,-43.457,-41.016,-20.508,0.000
1759631033.777,-41.992,-39.062,-34.180,-35.645,0.000
1759631033.781,-75.195,-35.645,-36.133,-41.992,0.000
1759631033.785,-32.715,-37.109,-41.016,-25.391,0.000
1759631033.789,20.996,-38.574,-45.410,-13.184,0.000
1759631033.793,-21.973,-35.156,-40.527,-28.320,0.000
1759631033.797,-80.078,-39.062,-38.574,-46.875,0.000
1759631033.801,-62.500,-41.992,-42.480,-43.457,0.000
1759631033.805,-3.906,-39.062,-42.480,-19.531,0.000
1759631033.809,-17.090,-35.645,-42.969,-18.555,0.000
1759631033.812,-82.031,-35.156,-40.039,-45.898,0.000
1759631033.816,-73.242,-37.109,-41.992,-58.594,0.000
1759631033.820,-2.930,-35.645,-46.875,-28.809,0.000
1759631033.824,10.742,-34.668,-37.109,-17.578,0.000
1759631033.828,-47.852,-35.645,-31.738,-40.527,0.000
1759631033.832,-71.289,-33.203,-34.180,-44.922,0.000
1759631033.836,-17.578,-31.738,-32.715,-25.879,0.000
1759631033.840,37.598,-29.297,-35.645,-10.742,0.000
1759631033.844,-16.602,-29.297,-32.715,-26.367,0.000
1759631033.848,-68.848,-37.109,-30.273,-44.434,0.000
1759631033.852,-36.133,-41.016,-34.180,-33.691,0.000
1759631033.855,18.066,-38.574,-35.156,-11.719,0.000
1759631033.859,-29.297,-41.992,-38.574,-36.133,0.000
1759631033.863,-84.961,-43.457,-41.504,-55.664,0.000
1759631033.867,-61.523,-45.410,-44.922,-52.246,0.000
1759631033.871,2.930,-48.828,-51.270,-39.551,0.000
1759631033.875,-1.465,-45.898,-46.387,-42.969,0.000
1759631033.879,-67.871,-45.898,-39.551,-62.012,0.000
1759631033.883,-79.590,-44.922,-41.504,-57.617,0.000
1759631033.887,-20.508,-42.480,-41.016,-28.809,0.000
1759631033.891,11.230,-44.434,-38.574,-15.625,0.000
1759631033.895,-45.898,-43.457,-40.527,-43.457,0.000
1759631033.898,-73.730,-43.945,-39.062,-38.574,0.000
1759631033.902,-28.320,-43.945,-41.992,-24.414,0.000
1759631033.906,16.113,-43.457,-47.852,-37.598,0.000
1759631033.910,-36.133,-47.852,-45.898,-58.105,0.000
1759631033.914,-87.891,-46.387,-44.434,-62.988,0.000
1759631033.918,-59.082,-43.945,-46.387,-53.711,0.000
1759631033.922,11.719,-45.410,-44.434,-34.180,0.000
1759631033.926,-4.883,-42.480,-36.621,-35.645,0.000
1759631033.930,-70.312,-38.574,-36.133,-59.082,0.000
1759631033.934,-62.500,-40.039,-38.574,-55.664,0.000
1759631033.937,-1.953,-43.945,-42.480,-29.785,0.000
1759631033.941,-3.418,-42.969,-41.504,-31.250,0.000
1759631033.945,-56.152,-37.109,-36.621,-45.410,0.000
1759631033.949,-65.918,-35.156,-41.016,-47.852,0.000
1759631033.953,-8.301,-35.156,-39.062,-31.250,0.000
1759631033.957,28.320,-37.598,-37.598,-16.113,0.000
1759631033.961,-32.227,-42.969,-36.133,-41.016,0.000
1759631033.965,-72.266,-41.992,-40.039,-61.523,0.000
1759631033.969,-26.855,-34.180,-44.922,-38.574,0.000
1759631033.973,30.273,-37.598,-35.645,-17.578,0.000
1759631033.977,-8.301,-40.039,-37.109,-37.598,0.000
1759631033.980,-59.082,-35.645,-40.527,-52.246,0.000
1759631033.984,-48.828,-36.621,-37.598,-38.574,0.000
1759631033.988,13.184,-34.668,-35.156,-9.277,0.000
1759631033.992,-2.441,-34.180,-34.180,-27.344,0.000
1759631033.996,-68.848,-38.574,-32.227,-59.082,0.000
1759631034.000,-61.035,-40.039,-29.785,-48.340,0.000
1759631034.004,-1.953,-38.086,-34.180,-33.203,0.000
1759631034.008,9.277,-39.551,-31.250,-36.621,0.000
1759631034.012,-45.898,-40.527,-25.391,-53.223,0.000
1759631034.016,-62.012,-41.992,-26.367,-50.293,0.000
1759631034.019,-5.371,-38.086,-31.738,-29.297,0.000
1759631034.023,30.762,-32.715,-34.668,-18.066,0.000
1759631034.027,-31.738,-31.738,-34.180,-40.527,0.000
1759631034.031,-67.871,-34.668,-35.645,-52.734,0.000
1759631034.035,-34.668,-41.504,-37.598,-35.156,0.000
1759631034.039,18.555,-43.945,-37.109,-19.531,0.000
1759631034.043,-29.785,-40.527,-35.645,-38.574,0.000
1759631034.047,-89.355,-43.945,-33.691,-54.199,0.000
1759631034.051,-62.012,-43.457,-35.645,-46.387,0.000
1759631034.055,-3.906,-45.410,-41.016,-33.203,0.000
1759631034.059,-12.207,-45.410,-43.945,-42.480,0.000
1759631034.062,-74.707,-44.922,-49.316,-59.082,0.000
1759631034.066,-72.754,-48.340,-47.852,-51.758,0.000
1759631034.070,-2.441,-46.387,-40.527,-29.297,0.000
1759631034.074,17.090,-44.922,-35.645,-22.461,0.000
1759631034.078,-47.852,-46.387,-32.715,-38.086,0.000
1759631034.082,-73.730,-47.363,-37.109,-44.434,0.000
1759631034.086,-31.738,-48.340,-41.992,-33.691,0.000
1759631034.090,2.930,-49.316,-41.016,-26.367,0.000
1759631034.094,-53.711,-52.246,-40.527,-40.527,0.000
1759631034.098,-93.750,-48.340,-41.992,-53.711,0.000
1759631034.101,-57.617,-46.875,-43.945,-54.688,0.000
1759631034.105,2.441,-45.410,-41.992,-31.250,0.000
1759631034.109,-23.438,-40.039,-39.551,-39.551,0.000
1759631034.113,-71.777,-43.945,-37.109,-61.035,0.000
1759631034.117,-50.781,-47.363,-35.645,-48.828,0.000
1759631034.121,0.977,-45.898,-38.574,-28.320,0.000
1759631034.125,-11.230,-43.457,-35.156,-28.809,0.000
1759631034.129,-64.941,-37.109,-31.250,-49.316,0.000
1759631034.133,-66.895,-33.691,-31.250,-52.734,0.000
1759631034.137,-3.418,-34.668,-28.809,-20.996,0.000
1759631034.141,23.438,-35.645,-28.320,-9.277,0.000
1759631034.144,-60.547,-37.598,-33.691,-53.223,0.000
1759631034.148,-82.520,-34.180,-30.762,-60.547,0.000
1759631034.152,-20.508,-39.551,-27.832,-31.250,0.000
1759631034.156,28.320,-41.016,-30.762,-20.996,0.000
1759631034.160,-29.785,-40.039,-28.809,-43.945,0.000
1759631034.164,-79.590,-42.480,-29.297,-48.828,0.000
1759631034.168,-42.969,-44.434,-35.156,-30.762,0.000
1759631034.172,21.973,-41.992,-40.039,-16.113,0.000
1759631034.176,-14.648,-38.086,-40.527,-37.109,0.000
1759631034.180,-81.055,-41.016,-35.156,-58.594,0.000
1759631034.184,-60.547,-45.898,-32.715,-38.574,0.000
1759631034.187,6.348,-45.898,-33.203,-15.625,0.000
1759631034.191,6.836,-38.574,-36.133,-32.715,0.000
1759631034.195,-64.453,-37.598,-35.645,-56.152,0.000
1759631034.199,-72.266,-41.992,-37.109,-50.781,0.000
1759631034.203,-7.324,-43.457,-42.480,-28.320,0.000
1759631034.207,15.625,-42.969,-44.434,-28.320,0.000
1759631034.211,-53.223,-41.992,-39.551,-47.363,0.000
1759631034.215,-86.426,-41.016,-40.039,-56.152,0.000
1759631034.219,-44.922,-43.945,-42.969,-46.387,0.000
1759631034.223,6.348,-40.527,-42.969,-32.715,0.000
1759631034.227,-30.762,-39.062,-41.016,-47.363,0.000
1759631034.230,-86.426,-41.992,-39.062,-54.688,0.000
1759631034.234,-63.965,-40.527,-44.922,-52.734,0.000
1759631034.238,6.348,-36.133,-45.410,-27.832,0.000
1759631034.242,-13.184,-37.598,-40.527,-33.691,0.000
1759631034.246,-82.031,-40.039,-38.086,-59.570,0.000
1759631034.250,-78.125,-41.016,-37.598,-60.059,0.000
1759631034.254,-7.812,-42.969,-38.086,-37.109,0.000
1759631034.258,5.859,-41.016,-41.016,-30.762,0.000
1759631034.262,-60.059,-45.410,-38.574,-50.781,0.000
1759631034.266,-71.777,-45.410,-38.086,-52.246,0.000
1759631034.269,-18.555,-40.039,-43.457,-34.180,0.000
1759631034.273,16.113,-41.016,-42.969,-11.230,0.000
1759631034.277,-40.039,-48.340,-42.969,-29.785,0.000
1759631034.281,-81.543,-52.734,-41.992,-51.270,0.000
1759631034.285,-39.551,-49.316,-45.410,-43.457,0.000
1759631034.289,6.836,-53.711,-46.875,-26.855,0.000
1759631034.293,-33.203,-53.223,-39.062,-41.992,0.000
1759631034.297,-85.938,-47.852,-35.156,-62.988,0.000
1759631034.301,-60.059,-50.781,-35.156,-45.410,0.000
1759631034.305,12.207,-51.270,-37.109,-15.137,0.000
1759631034.309,-6.836,-46.387,-40.039,-29.297,0.000
1759631034.312,-69.336,-42.969,-39.062,-55.176,0.000
1759631034.316,-64.453,-44.922,-34.668,-42.480,0.000
1759631034.320,-10.742,-48.340,-39.062,-17.578,0.000
1759631034.324,2.930,-48.828,-44.922,-28.320,0.000
1759631034.328,-53.711,-42.480,-41.016,-54.199,0.000
1759631034.332,-79.102,-40.039,-37.109,-47.852,0.000
1759631034.336,-27.344,-46.875,-38.086,-28.809,0.000
1759631034.340,18.066,-44.922,-42.480,-17.578,0.000
1759631034.344,-40.527,-39.062,-40.039,-31.738,0.000
1759631034.348,-79.102,-39.062,-38.086,-41.504,0.000
1759631034.352,-43.457,-40.527,-42.969,-36.621,0.000
1759631034.355,19.531,-37.109,-42.969,-15.137,0.000
1759631034.359,-5.859,-29.785,-40.527,-29.297,0.000
1759631034.363,-64.453,-28.809,-42.480,-39.062,0.000
1759631034.367,-55.664,-33.203,-46.875,-29.297,0.000
1759631034.371,5.859,-33.203,-52.246,-21.484,0.000
1759631034.375,8.301,-30.273,-48.340,-25.391,0.000
1759631034.379,-61.523,-34.668,-43.457,-44.922,0.000
1759631034.383,-66.895,-37.109,-46.875,-41.504,0.000
1759631034.387,-0.488,-33.691,-49.316,-17.090,0.000
1759631034.391,10.742,-38.574,-46.387,-11.230,0.000
1759631034.395,-56.152,-38.086,-44.922,-33.203,0.000
1759631034.398,-79.590,-36.133,-48.828,-33.691,0.000
1759631034.402,-38.574,-44.922,-55.176,-25.391,0.000
1759631034.406,11.230,-47.852,-56.152,-13.672,0.000
1759631034.410,-34.180,-48.340,-52.246,-20.020,0.000
1759631034.414,-86.426,-55.176,-52.246,-42.480,0.000
1759631034.418,-51.270,-55.664,-47.852,-30.273,0.000
1759631034.422,21.973,-47.852,-46.387,-1.465,0.000
1759631034.426,0.977,-44.434,-48.340,-23.926,0.000
1759631034.430,-67.383,-47.852,-45.898,-48.828,0.000
1759631034.434,-60.059,-44.922,-43.457,-37.598,0.000
1759631034.437,11.230,-42.969,-41.504,-7.324,0.000
1759631034.441,13.672,-40.039,-36.621,-9.277,0.000
1759631034.445,-59.082,-37.598,-40.527,-37.109,0.000
1759631034.449,-71.777,-42.969,-46.387,-40.527,0.000
1759631034.453,-9.766,-41.016,-44.434,-22.461,0.000
1759631034.457,15.137,-39.551,-45.898,-18.555,0.000
1759631034.461,-51.758,-42.480,-43.457,-47.852,0.000
1759631034.465,-87.891,-40.527,-41.016,-56.152,0.000
1759631034.469,-36.621,-44.922,-45.410,-25.391,0.000
1759631034.473,13.184,-47.852,-49.316,-15.625,0.000
1759631034.476,-34.180,-45.898,-47.852,-44.922,0.000
1759631034.480,-79.102,-51.270,-42.969,-50.293,0.000
1759631034.484,-59.570,-52.246,-43.945,-38.574,0.000
1759631034.488,6.836,-49.805,-46.875,-21.484,0.000
1759631034.492,-15.625,-53.711,-45.410,-36.133,0.000
1759631034.496,-81.543,-52.734,-42.969,-58.105,0.000
1759631034.500,-68.359,-49.316,-43.945,-44.434,0.000
1759631034.504,-3.906,-45.898,-46.875,-15.137,0.000
1759631034.508,-5.859,-42.480,-45.898,-24.414,0.000
1759631034.512,-60.547,-43.457,-38.574,-43.457,0.000
1759631034.516,-65.918,-44.434,-37.598,-35.156,0.000
1759631034.519,-24.902,-41.992,-41.992,-28.320,0.000
1759631034.523,10.254,-37.109,-39.551,-23.438,0.000
1759631034.527,-49.316,-39.551,-35.645,-51.758,0.000
1759631034.531,-86.914,-42.480,-35.645,-65.430,0.000
1759631034.535,-36.621,-42.480,-39.062,-43.945,0.000
1759631034.539,29.297,-40.527,-39.062,-25.391,0.000
1759631034.543,-15.625,-36.133,-33.691,-42.969,0.000
1759631034.547,-79.590,-35.645,-33.203,-56.641,0.000
1759631034.551,-51.758,-35.645,-28.809,-43.457,0.000
1759631034.555,9.766,-36.133,-28.320,-28.320,0.000
1759631034.559,-6.348,-35.645,-33.203,-36.133,0.000
1759631034.562,-71.777,-38.086,-36.621,-59.570,0.000
1759631034.566,-72.266,-39.551,-40.039,-68.848,0.000
1759631034.570,-6.836,-32.715,-36.621,-48.828,0.000
1759631034.574,-2.930,-27.344,-31.738,-50.781,0.000
1759631034.578,-70.801,-22.461,-25.879,-67.383,0.000
1759631034.582,-85.449,-17.578,-25.391,-67.383,0.000
1759631034.586,-29.297,-29.297,-26.367,-49.805,0.000
1759631034.590,3.906,-31.250,-13.672,-46.875,0.000
1759631034.594,-65.918,-13.184,-4.883,-88.379,0.000
1759631034.598,-119.141,-14.160,-15.137,-110.840,0.000
1759631034.601,-105.469,-20.020,-10.254,-102.539,0.000
1759631034.605,-66.895,-10.742,4.883,-92.773,0.000
1759631034.609,-123.535,-10.254,2.930,-135.742,0.000
1759631034.613,-192.383,-2.930,3.418,-172.852,0.000
1759631034.617,-189.941,15.137,23.926,-181.152,0.000
1759631034.621,-164.551,27.832,27.832,-194.824,0.000
1759631034.625,-204.102,24.414,38.574,-221.680,0.000
1759631034.629,-291.992,20.020,52.246,-268.555,0.000
1759631034.633,-319.824,30.762,66.406,-294.922,0.000
1759631034.637,-284.180,39.062,72.266,-292.480,0.000
1759631034.641,-276.367,45.898,55.176,-312.012,0.000
1759631034.644,-363.770,53.223,50.293,-361.816,0.000
1759631034.648,-408.203,70.312,67.871,-377.441,0.000
1759631034.652,-370.117,88.379,65.430,-375.000,0.000
1759631034.656,-333.984,82.031,48.340,-375.000,0.000
1759631034.660,-373.535,79.590,56.152,-375.000,0.000
1759631034.664,-406.738,84.473,49.316,-376.465,0.000
1759631034.668,-364.746,84.961,37.109,-356.445,0.000
1759631034.672,-302.246,78.613,34.668,-330.566,0.000
1759631034.676,-317.871,66.406,31.738,-328.125,0.000
1759631034.680,-354.492,69.336,33.203,-320.312,0.000
1759631034.684,-331.543,55.664,32.227,-297.363,0.000
1759631034.687,-259.277,34.668,18.066,-256.836,0.000
1759631034.691,-246.094,31.738,12.695,-243.164,0.000
1759631034.695,-302.246,27.832,18.066,-254.395,0.000
1759631034.699,-298.340,28.320,16.602,-236.816,0.000
1759631034.703,-223.145,33.203,7.324,-206.055,0.000
1759631034.707,-170.898,33.691,2.930,-183.105,0.000
1759631034.711,-207.031,26.367,9.766,-185.547,0.000
1759631034.715,-221.680,15.625,9.277,-182.129,0.000
1759631034.719,-153.320,5.371,6.348,-141.113,0.000
1759631034.723,-76.660,-12.207,1.465,-104.492,0.000
1759631034.726,-102.539,-20.996,-4.395,-112.305,0.000
1759631034.730,-132.812,-20.508,-5.371,-108.887,0.000
1759631034.734,-85.449,-23.926,-14.648,-78.613,0.000
1759631034.738,1.953,-35.645,-31.738,-29.297,0.000
1759631034.742,1.953,-43.945,-42.969,-12.695,0.000
1759631034.746,-56.641,-48.340,-45.410,-31.250,0.000
1759631034.750,-44.434,-60.059,-43.457,-18.066,0.000
1759631034.754,36.621,-75.195,-48.828,29.297,0.000
1759631034.758,56.641,-77.148,-53.223,53.223,0.000
1759631034.762,7.324,-75.195,-53.711,49.316,0.000
1759631034.766,15.137,-80.078,-55.664,62.500,0.000
1759631034.769,83.008,-86.914,-62.012,82.031,0.000
1759631034.773,127.441,-91.797,-65.918,93.262,0.000
1759631034.777,75.195,-93.262,-62.012,84.961,0.000
1759631034.781,44.922,-99.609,-61.523,84.961,0.000
1759631034.785,90.820,-104.980,-68.359,105.957,0.000
1759631034.789,148.926,-108.887,-76.172,119.141,0.000
1759631034.793,109.375,-109.375,-76.172,92.285,0.000
1759631034.797,64.453,-106.934,-73.730,79.590,0.000
1759631034.801,97.168,-102.539,-76.660,100.586,0.000
1759631034.804,161.133,-101.074,-78.613,117.188,0.000
1759631034.808,142.090,-103.027,-75.195,104.492,0.000
1759631034.812,73.242,-103.516,-76.172,91.797,0.000
1759631034.816,73.242,-101.074,-82.031,90.820,0.000
1759631034.820,135.254,-100.586,-81.055,106.445,0.000
1759631034.824,156.738,-97.168,-75.684,116.211,0.000
1759631034.828,91.797,-92.773,-75.684,92.285,0.000
1759631034.832,65.430,-94.238,-77.637,83.984,0.000
1759631034.836,109.863,-98.145,-77.637,94.238,0.000
1759631034.840,145.996,-96.680,-74.219,97.168,0.000
1759631034.844,81.543,-92.285,-70.312,83.984,0.000
1759631034.847,23.438,-95.703,-73.242,73.730,0.000
1759631034.851,51.270,-97.656,-73.730,75.195,0.000
1759631034.855,105.957,-93.262,-74.219,88.867,0.000
1759631034.859,72.266,-88.867,-72.754,75.684,0.000
1759631034.863,16.113,-83.496,-69.336,52.246,0.000
1759631034.867,34.668,-80.078,-69.336,53.711,0.000
1759631034.871,94.238,-79.102,-71.777,75.684,0.000
1759631034.875,93.262,-77.148,-69.824,70.312,0.000
1759631034.879,33.691,-77.637,-68.359,39.551,0.000
1759631034.883,24.902,-73.242,-69.824,33.691,0.000
1759631034.887,83.496,-72.266,-66.406,50.781,0.000
1759631034.890,109.863,-72.754,-67.383,49.805,0.000
1759631034.894,49.805,-69.336,-68.359,21.484,0.000
1759631034.898,13.184,-65.430,-62.988,29.785,0.000
1759631034.902,54.688,-70.312,-64.453,45.410,0.000
1759631034.906,94.238,-69.824,-66.895,40.039,0.000
1759631034.910,41.016,-62.988,-61.523,22.461,0.000
1759631034.914,-1.465,-66.406,-58.105,16.602,0.000
1759631034.918,31.738,-61.523,-56.152,25.879,0.000
1759631034.922,86.426,-57.129,-55.176,46.875,0.000
1759631034.926,48.828,-56.152,-53.223,39.551,0.000
1759631034.930,-18.066,-60.547,-54.199,17.090,0.000
1759631034.933,-1.953,-63.965,-52.734,31.738,0.000
1759631034.937,64.453,-61.035,-57.129,51.270,0.000
1759631034.941,50.293,-57.617,-57.617,34.180,0.000
1759631034.945,-16.113,-57.129,-48.340,17.090,0.000
1759631034.949,-25.391,-62.012,-47.852,12.207,0.000
1759631034.953,24.902,-62.500,-49.316,21.484,0.000
1759631034.957,52.734,-57.617,-51.270,21.973,0.000
1759631034.961,-8.789,-57.617,-55.664,-2.930,0.000
1759631034.965,-32.227,-54.688,-57.617,-7.324,0.000
1759631034.969,31.738,-51.758,-57.617,3.906,0.000
1759631034.972,70.312,-52.246,-58.105,1.953,0.000
1759631034.976,6.348,-51.758,-51.758,-20.508,0.000
1759631034.980,-44.922,-53.711,-48.340,-29.297,0.000
1759631034.984,-20.996,-51.758,-51.758,-25.879,0.000
1759631034.988,45.410,-47.852,-51.270,-1.953,0.000
1759631034.992,26.855,-46.387,-48.340,-4.883,0.000
1759631034.996,-40.527,-46.387,-47.363,-22.949,0.000
1759631035.000,-32.715,-46.387,-52.246,-20.996,0.000
1759631035.004,32.715,-45.410,-56.152,1.465,0.000
1759631035.008,32.715,-45.410,-53.223,4.395,0.000
1759631035.012,-39.551,-46.387,-50.781,-26.855,0.000
1759631035.015,-51.270,-51.270,-47.363,-21.973,0.000
1759631035.019,8.789,-53.711,-45.898,-2.930,0.000
1759631035.023,42.969,-50.781,-44.922,4.395,0.000
1759631035.027,-22.461,-55.176,-48.828,-18.066,0.000
1759631035.031,-55.664,-53.711,-49.805,-42.480,0.000
1759631035.035,-17.578,-50.781,-47.363,-26.367,0.000
1759631035.039,20.996,-51.758,-51.758,-17.090,0.000
1759631035.043,-22.949,-53.223,-56.152,-42.969,0.000
1759631035.047,-70.312,-52.246,-56.641,-60.547,0.000
1759631035.051,-39.551,-50.781,-55.664,-51.270,0.000
1759631035.055,30.273,-50.293,-57.129,-28.809,0.000
1759631035.058,11.719,-45.898,-53.711,-35.156,0.000
1759631035.062,-55.176,-49.316,-48.828,-53.223,0.000
1759631035.066,-51.758,-52.734,-43.945,-51.758,0.000
1759631035.070,9.766,-57.129,-49.805,-23.926,0.000
1759631035.074,16.602,-51.758,-55.176,-23.438,0.000
1759631035.078,-49.805,-42.480,-50.293,-49.805,0.000
1759631035.082,-62.988,-46.875,-50.293,-47.363,0.000
1759631035.086,-7.324,-42.480,-54.199,-34.180,0.000
1759631035.090,23.926,-37.598,-57.129,-27.832,0.000
1759631035.094,-28.809,-44.434,-50.781,-50.293,0.000
1759631035.097,-69.824,-47.363,-47.852,-62.500,0.000
1759631035.101,-30.273,-46.387,-50.293,-42.480,0.000
1759631035.105,37.598,-45.410,-50.781,-19.043,0.000
1759631035.109,-11.230,-44.434,-47.363,-43.457,0.000
1759631035.113,-69.336,-48.828,-43.457,-52.246,0.000
1759631035.117,-40.527,-50.293,-48.340,-27.832,0.000
1759631035.121,13.672,-45.898,-52.734,-15.137,0.000
1759631035.125,-2.930,-41.992,-46.875,-26.855,0.000
1759631035.129,-58.105,-41.504,-39.551,-42.969,0.000
1759631035.133,-59.082,-43.945,-38.574,-35.156,0.000
1759631035.137,9.277,-45.898,-38.086,-14.648,0.000
1759631035.140,34.668,-46.875,-34.180,-11.719,0.000
1759631035.144,-39.551,-46.875,-29.785,-39.551,0.000
1759631035.148,-55.664,-43.945,-31.738,-46.387,0.000
1759631035.152,-3.906,-42.969,-38.574,-26.367,0.000
1759631035.156,22.949,-45.898,-42.969,-20.996,0.000
1759631035.160,-29.785,-49.805,-44.434,-46.387,0.000
1759631035.164,-73.242,-46.875,-41.992,-61.035,0.000
1759631035.168,-37.598,-45.898,-42.969,-49.316,0.000
1759631035.172,27.344,-47.852,-41.992,-23.438,0.000
1759631035.175,-13.672,-49.316,-40.039,-43.457,0.000
1759631035.179,-81.543,-51.758,-41.016,-64.453,0.000
1759631035.183,-63.965,-48.828,-34.668,-52.734,0.000
1759631035.187,9.766,-47.363,-36.621,-28.320,0.000
1759631035.191,8.789,-43.945,-38.574,-26.855,0.000
1759631035.195,-55.664,-33.691,-38.086,-51.758,0.000
1759631035.199,-54.688,-35.156,-43.457,-42.969,0.000
1759631035.203,6.836,-42.969,-49.316,-14.648,0.000
1759631035.207,31.738,-45.410,-52.246,-14.160,0.000
1759631035.211,-45.898,-45.410,-50.293,-41.016,0.000
1759631035.215,-82.031,-41.016,-46.387,-40.527,0.000
1759631035.218,-16.113,-42.480,-42.480,-18.555,0.000
1759631035.222,34.180,-46.875,-44.434,-11.230,0.000
1759631035.226,-23.926,-43.457,-46.875,-39.062,0.000
1759631035.230,-67.383,-40.039,-46.875,-53.711,0.000
1759631035.234,-31.250,-39.551,-47.852,-38.086,0.000
1759631035.238,26.367,-41.992,-46.387,-21.484,0.000
1759631035.242,-2.441,-43.457,-48.340,-40.527,0.000
1759631035.246,-67.871,-48.340,-51.270,-59.082,0.000
1759631035.250,-65.430,-59.082,-51.758,-44.434,0.000
1759631035.254,-2.930,-53.223,-44.434,-16.602,0.000
1759631035.258,2.930,-45.410,-42.480,-20.508,0.000
1759631035.261,-62.988,-47.852,-41.992,-36.133,0.000
1759631035.265,-81.055,-51.270,-37.598,-29.785,0.000
1759631035.269,-23.926,-51.758,-44.434,-21.484,0.000
1759631035.273,10.254,-49.316,-49.316,-16.113,0.000
1759631035.277,-58.594,-52.734,-44.922,-41.016,0.000
1759631035.281,-93.750,-55.176,-45.898,-52.734,0.000
1759631035.285,-38.574,-53.711,-44.434,-18.066,0.000
1759631035.289,21.973,-47.852,-38.574,1.465,0.000
1759631035.293,-33.203,-43.457,-38.574,-28.809,0.000
1759631035.297,-96.191,-49.805,-41.992,-45.898,0.000
1759631035.301,-66.895,-52.246,-41.016,-40.039,0.000
1759631035.304,4.883,-40.527,-40.527,-20.020,0.000
1759631035.308,-12.207,-42.480,-43.457,-22.949,0.000
1759631035.312,-73.730,-46.387,-45.898,-44.922,0.000
1759631035.316,-65.918,-40.527,-47.363,-49.805,0.000
1759631035.320,0.488,-37.598,-43.945,-26.367,0.000
1759631035.324,12.695,-35.156,-41.992,-23.926,0.000
1759631035.328,-58.105,-36.133,-41.016,-54.199,0.000
1759631035.332,-86.914,-39.062,-41.504,-59.082,0.000
1759631035.336,-33.203,-38.574,-44.922,-40.527,0.000
1759631035.340,14.648,-40.527,-43.945,-28.809,0.000
1759631035.344,-38.574,-39.551,-39.551,-42.480,0.000
1759631035.347,-81.543,-39.551,-40.039,-46.875,0.000
1759631035.351,-38.574,-41.016,-39.551,-31.738,0.000
1759631035.355,16.602,-40.039,-38.086,-7.812,0.000
1759631035.359,-28.809,-39.062,-38.086,-29.785,0.000
1759631035.363,-78.613,-35.156,-31.738,-44.922,0.000
1759631035.367,-50.781,-33.691,-28.320,-26.855,0.000
1759631035.371,2.930,-36.133,-32.227,-18.555,0.000
1759631035.375,-20.020,-38.574,-32.715,-37.598,0.000
1759631035.379,-80.078,-38.086,-31.250,-55.176,0.000
1759631035.383,-71.777,-34.668,-33.203,-44.922,0.000
1759631035.386,-11.230,-33.691,-33.691,-23.926,0.000
1759631035.390,9.277,-29.297,-31.250,-14.160,0.000
1759631035.394,-57.129,-29.785,-29.785,-30.273,0.000
1759631035.398,-76.172,-36.621,-33.691,-38.086,0.000
1759631035.402,-17.578,-37.109,-40.527,-29.785,0.000
1759631035.406,25.391,-33.203,-41.504,-21.973,0.000
1759631035.410,-25.391,-33.691,-40.039,-40.527,0.000
1759631035.414,-68.359,-41.016,-41.016,-57.129,0.000
1759631035.418,-43.945,-41.504,-41.016,-46.387,0.000
1759631035.422,9.277,-39.062,-40.527,-24.414,0.000
1759631035.426,-14.160,-40.527,-39.551,-29.785,0.000
1759631035.429,-74.707,-43.457,-38.086,-44.922,0.000
1759631035.433,-62.988,-44.922,-39.551,-36.621,0.000
1759631035.437,8.301,-45.410,-41.016,-10.742,0.000
1759631035.441,11.719,-43.457,-31.738,-13.184,0.000
1759631035.445,-54.688,-40.527,-30.762,-22.949,0.000
1759631035.449,-64.941,-46.387,-34.668,-24.414,0.000
1759631035.453,2.441,-45.898,-31.250,-10.254,0.000
1759631035.457,37.598,-38.574,-30.273,1.953,0.000
1759631035.461,-36.621,-43.457,-32.227,-20.996,0.000
1759631035.465,-68.848,-48.340,-33.691,-30.762,0.000
1759631035.469,-9.766,-43.945,-34.668,-14.160,0.000
1759631035.472,41.992,-36.133,-35.156,1.465,0.000
1759631035.476,-4.395,-38.574,-32.715,-21.973,0.000
1759631035.480,-58.594,-44.922,-36.621,-41.992,0.000
1759631035.484,-31.250,-42.480,-38.086,-25.879,0.000
1759631035.488,43.945,-39.062,-33.691,9.277,0.000
1759631035.492,10.742,-37.109,-30.762,-5.859,0.000
1759631035.496,-67.383,-38.574,-32.715,-41.992,0.000
1759631035.500,-53.223,-36.621,-35.156,-33.203,0.000
1759631035.504,12.695,-33.691,-35.645,-13.672,0.000
1759631035.507,15.625,-36.621,-35.645,-26.855,0.000
1759631035.511,-60.059,-40.039,-37.598,-57.129,0.000
1759631035.515,-79.590,-44.922,-38.086,-51.270,0.000
1759631035.519,-15.625,-45.898,-41.992,-21.484,0.000
1759631035.523,11.230,-43.945,-46.875,-15.625,0.000
1759631035.527,-49.805,-44.922,-41.504,-37.109,0.000
1759631035.531,-75.684,-41.504,-43.457,-46.387,0.000
1759631035.535,-28.320,-38.086,-49.316,-29.785,0.000
1759631035.539,19.531,-41.504,-51.758,-16.602,0.000
1759631035.543,-29.297,-41.504,-51.270,-45.898,0.000
1759631035.547,-73.242,-40.527,-44.922,-57.129,0.000
1759631035.550,-46.387,-42.969,-43.457,-43.945,0.000
1759631035.554,6.836,-50.293,-48.340,-33.691,0.000
1759631035.558,-6.836,-48.828,-43.945,-41.504,0.000
1759631035.562,-58.105,-44.434,-39.551,-46.875,0.000
1759631035.566,-48.828,-51.270,-41.992,-42.969,0.000
1759631035.570,8.789,-52.246,-45.898,-23.926,0.000
1759631035.574,14.648,-49.316,-42.480,-20.996,0.000
1759631035.578,-51.758,-50.781,-38.086,-38.574,0.000
1759631035.582,-78.125,-49.805,-36.621,-45.898,0.000
1759631035.586,-21.973,-48.828,-37.109,-36.133,0.000
1759631035.590,24.902,-41.504,-35.645,-16.602,0.000
1759631035.593,-35.645,-38.086,-28.320,-31.738,0.000
1759631035.597,-69.336,-37.109,-26.367,-43.945,0.000
1759631035.601,-26.367,-35.645,-31.738,-37.598,0.000
1759631035.605,17.578,-40.039,-40.039,-27.832,0.000
1759631035.609,-20.020,-38.574,-39.551,-36.133,0.000
1759631035.613,-70.312,-34.668,-37.598,-49.316,0.000
1759631035.617,-47.852,-33.691,-37.598,-41.992,0.000
1759631035.621,16.113,-33.203,-35.645,-20.508,0.000
1759631035.625,5.859,-33.691,-36.621,-27.832,0.000
1759631035.629,-62.988,-35.156,-38.086,-48.828,0.000
1759631035.633,-64.453,-39.062,-40.039,-53.711,0.000
1759631035.636,-0.488,-40.039,-42.969,-31.738,0.000
1759631035.640,4.395,-40.039,-39.062,-22.461,0.000
1759631035.644,-63.965,-43.945,-40.527,-51.270,0.000
1759631035.648,-83.008,-43.457,-45.410,-54.199,0.000
1759631035.652,-31.250,-43.945,-41.992,-35.156,0.000
1759631035.656,6.836,-42.969,-42.480,-25.391,0.000
1759631035.660,-50.781,-40.039,-41.992,-49.805,0.000
1759631035.664,-91.797,-44.434,-39.551,-62.988,0.000
1759631035.668,-48.340,-47.363,-40.039,-37.598,0.000
1759631035.672,20.996,-45.410,-42.480,-17.578,0.000
1759631035.676,-11.719,-41.016,-41.016,-38.086,0.000
1759631035.679,-76.660,-40.039,-41.016,-57.129,0.000
1759631035.683,-57.617,-41.504,-40.527,-39.062,0.000
1759631035.687,3.418,-41.992,-43.457,-22.461,0.000
1759631035.691,-11.230,-39.551,-49.316,-41.504,0.000
1759631035.695,-70.801,-42.969,-42.969,-54.688,0.000
1759631035.699,-73.242,-47.852,-38.086,-45.898,0.000
1759631035.703,-15.137,-44.434,-42.480,-25.879,0.000
1759631035.707,14.160,-42.480,-46.875,-20.020,0.000
1759631035.711,-43.945,-40.527,-46.387,-33.203,0.000
1759631035.715,-73.242,-35.645,-41.992,-33.691,0.000
1759631035.718,-34.180,-39.551,-43.457,-21.484,0.000
1759631035.722,13.184,-46.875,-42.969,-10.742,0.000
1759631035.726,-32.715,-44.922,-36.621,-30.762,0.000
1759631035.730,-81.543,-41.992,-35.645,-35.156,0.000
1759631035.734,-55.176,-43.457,-37.598,-32.227,0.000
1759631035.738,2.441,-38.574,-40.527,-24.414,0.000
1759631035.742,-11.719,-33.691,-36.621,-29.297,0.000
1759631035.746,-69.336,-40.039,-35.156,-45.410,0.000
1759631035.750,-70.312,-42.969,-42.969,-41.992,0.000
1759631035.754,-2.441,-41.992,-48.828,-20.996,0.000
1759631035.758,1.465,-36.133,-40.039,-20.020,0.000
1759631035.761,-56.152,-35.156,-33.691,-41.992,0.000
1759631035.765,-62.500,-41.016,-34.180,-41.504,0.000
1759631035.769,-8.301,-43.457,-38.574,-22.949,0.000
1759631035.773,19.043,-44.922,-36.621,-4.883,0.000
1759631035.777,-50.293,-48.828,-35.156,-27.344,0.000
1759631035.781,-86.426,-46.875,-35.156,-44.434,0.000
1759631035.785,-39.062,-41.992,-34.180,-27.344,0.000
1759631035.789,13.184,-45.898,-39.551,-12.207,0.000
1759631035.793,-30.762,-41.016,-38.086,-33.691,0.000
1759631035.797,-83.984,-35.645,-33.203,-58.105,0.000
1759631035.801,-49.316,-45.898,-36.621,-42.969,0.000
1759631035.804,14.160,-47.852,-42.480,-17.090,0.000
1759631035.808,-22.949,-41.016,-41.504,-30.273,0.000
1759631035.812,-80.078,-40.039,-35.156,-56.641,0.000
1759631035.816,-62.500,-41.016,-34.180,-48.828,0.000
1759631035.820,0.488,-41.016,-40.039,-17.578,0.000
1759631035.824,13.184,-38.086,-43.457,-25.391,0.000
1759631035.828,-50.293,-41.016,-42.480,-58.594,0.000
1759631035.832,-71.777,-44.434,-42.480,-56.152,0.000
1759631035.836,-23.438,-44.434,-49.316,-35.156,0.000
1759631035.840,14.648,-41.016,-49.316,-29.297,0.000
1759631035.843,-37.598,-39.062,-42.480,-44.434,0.000
1759631035.847,-72.754,-40.527,-44.434,-47.363,0.000
1759631035.851,-34.180,-43.457,-45.410,-42.480,0.000
1759631035.855,19.043,-39.551,-43.945,-20.020,0.000
1759631035.859,-19.043,-34.180,-39.062,-23.926,0.000
1759631035.863,-66.406,-36.133,-32.715,-34.180,0.000
1759631035.867,-42.480,-39.062,-38.574,-27.344,0.000
1759631035.871,14.160,-41.992,-41.992,-15.137,0.000
1759631035.875,-6.836,-37.109,-34.180,-20.508,0.000
1759631035.879,-77.148,-40.039,-32.715,-46.387,0.000
1759631035.882,-76.172,-43.457,-33.203,-46.875,0.000
1759631035.886,-10.254,-47.363,-36.133,-27.344,0.000
1759631035.890,10.742,-46.387,-36.621,-25.879,0.000
1759631035.894,-62.500,-44.922,-38.086,-54.688,0.000
1759631035.898,-95.215,-45.410,-41.504,-57.617,0.000
1759631035.902,-40.527,-42.480,-41.016,-36.621,0.000
1759631035.906,1.465,-42.969,-45.410,-29.297,0.000
1759631035.910,-45.898,-39.062,-40.039,-41.992,0.000
1759631035.914,-83.496,-36.621,-40.039,-54.688,0.000
1759631035.918,-51.270,-37.109,-47.363,-44.922,0.000
1759631035.921,12.695,-41.016,-46.387,-19.043,0.000
1759631035.925,-15.625,-42.480,-41.016,-31.250,0.000
1759631035.929,-88.867,-42.480,-41.016,-52.246,0.000
1759631035.933,-69.824,-43.945,-42.969,-42.480,0.000
1759631035.937,7.324,-44.434,-42.480,-19.531,0.000
1759631035.941,-1.465,-43.457,-38.574,-25.391,0.000
1759631035.945,-72.266,-46.875,-37.598,-52.734,0.000
1759631035.949,-84.473,-51.758,-41.016,-58.594,0.000
1759631035.953,-10.742,-52.246,-41.992,-25.879,0.000
1759631035.957,7.812,-51.270,-41.016,-23.438,0.000
1759631035.961,-72.266,-53.223,-35.645,-56.152,0.000
1759631035.965,-91.797,-49.316,-33.691,-61.523,0.000
1759631035.968,-42.480,-47.852,-36.621,-39.551,0.000
1759631035.972,5.371,-45.410,-39.551,-21.973,0.000
1759631035.976,-44.922,-37.598,-35.645,-45.410,0.000
1759631035.980,-83.496,-40.039,-30.273,-57.129,0.000
1759631035.984,-42.480,-45.898,-34.668,-44.434,0.000
1759631035.988,16.113,-42.969,-39.062,-20.996,0.000
1759631035.992,-3.906,-34.180,-35.156,-22.949,0.000
1759631035.996,-60.547,-35.156,-34.180,-36.133,0.000
1759631036.000,-48.340,-41.016,-35.156,-30.273,0.000
1759631036.004,15.625,-41.016,-34.180,-13.184,0.000
1759631036.008,9.766,-37.598,-35.156,-18.066,0.000
1759631036.011,-59.570,-38.086,-37.109,-45.898,0.000
1759631036.015,-64.941,-41.016,-35.645,-41.016,0.000
1759631036.019,-18.555,-41.016,-39.551,-25.391,0.000
1759631036.023,1.465,-39.551,-42.480,-20.508,0.000
1759631036.027,-39.062,-37.109,-38.086,-34.668,0.000
1759631036.031,-68.359,-34.668,-39.062,-43.457,0.000
1759631036.035,-36.133,-35.645,-39.062,-36.621,0.000
1759631036.039,16.602,-37.598,-41.504,-24.414,0.000
1759631036.043,-25.879,-36.621,-46.875,-42.969,0.000
1759631036.047,-74.707,-36.133,-43.945,-57.129,0.000
1759631036.050,-44.922,-37.109,-45.898,-42.969,0.000
1759631036.054,7.324,-38.086,-48.340,-29.785,0.000
1759631036.058,-12.207,-39.062,-40.527,-31.738,0.000
1759631036.062,-71.289,-38.574,-38.086,-47.852,0.000
1759631036.066,-66.895,-37.109,-44.434,-55.664,0.000
1759631036.070,2.441,-38.574,-44.434,-35.645,0.000
1759631036.074,2.930,-41.504,-43.945,-39.062,0.000
1759631036.078,-64.453,-40.527,-39.551,-61.035,0.000
1759631036.082,-74.707,-39.062,-39.551,-59.082,0.000
1759631036.086,-19.043,-40.039,-39.551,-30.273,0.000
1759631036.090,11.230,-41.016,-39.551,-22.949,0.000
1759631036.093,-49.805,-43.945,-40.039,-54.199,0.000
1759631036.097,-87.402,-45.898,-37.598,-59.082,0.000
1759631036.101,-45.898,-44.922,-41.504,-42.969,0.000
1759631036.105,9.766,-43.945,-41.016,-32.227,0.000
1759631036.109,-45.410,-41.992,-40.527,-59.570,0.000
1759631036.113,-89.844,-41.504,-37.598,-72.754,0.000
1759631036.117,-54.199,-42.480,-35.645,-55.664,0.000
1759631036.121,10.254,-36.621,-37.109,-40.527,0.000
1759631036.125,-3.418,-35.156,-30.273,-52.246,0.000
1759631036.129,-71.289,-37.598,-31.250,-73.242,0.000
1759631036.133,-79.590,-39.062,-33.203,-71.289,0.000
1759631036.136,-13.184,-41.504,-36.133,-49.805,0.000
1759631036.140,8.789,-41.016,-34.180,-46.387,0.000
1759631036.144,-60.059,-38.086,-29.297,-72.266,0.000
1759631036.148,-74.219,-39.062,-33.203,-66.895,0.000
1759631036.152,-22.461,-44.922,-39.551,-47.363,0.000
1759631036.156,12.207,-43.945,-45.410,-52.246,0.000
1759631036.160,-35.645,-44.434,-39.551,-68.359,0.000
1759631036.164,-79.102,-47.852,-32.715,-74.219,0.000
1759631036.168,-52.734,-43.457,-35.156,-62.500,0.000
1759631036.172,7.324,-41.016,-42.480,-41.016,0.000
1759631036.176,-23.926,-44.434,-41.016,-49.805,0.000
1759631036.179,-76.660,-43.457,-37.598,-61.035,0.000
1759631036.183,-65.430,-43.945,-42.480,-57.129,0.000
1759631036.187,-3.906,-45.898,-45.898,-41.016,0.000
1759631036.191,-5.371,-38.086,-42.480,-44.922,0.000
1759631036.195,-72.754,-36.621,-35.156,-65.918,0.000
1759631036.199,-77.148,-38.574,-35.645,-68.848,0.000
1759631036.203,-18.066,-33.203,-38.086,-51.758,0.000
1759631036.207,11.230,-33.691,-35.645,-42.969,0.000
1759631036.211,-52.246,-38.086,-35.645,-61.035,0.000
1759631036.215,-79.102,-40.039,-34.668,-64.941,0.000
1759631036.218,-23.438,-41.992,-31.738,-40.527,0.000
1759631036.222,24.414,-42.480,-30.762,-20.996,0.000
1759631036.226,-33.203,-43.945,-31.738,-45.898,0.000
1759631036.230,-74.707,-48.828,-29.297,-61.035,0.000
1759631036.234,-37.109,-46.875,-28.809,-49.316,0.000
1759631036.238,27.344,-42.969,-31.250,-21.484,0.000
1759631036.242,-0.977,-43.457,-31.250,-21.973,0.000
1759631036.246,-70.312,-38.574,-33.203,-44.922,0.000
1759631036.250,-59.082,-39.062,-35.645,-52.734,0.000
1759631036.254,16.113,-40.039,-39.551,-32.227,0.000
1759631036.257,19.531,-35.156,-36.621,-30.273,0.000
1759631036.261,-56.152,-42.480,-36.621,-57.617,0.000
1759631036.265,-62.988,-43.945,-36.133,-57.617,0.000
1759631036.269,-1.953,-41.016,-38.086,-41.992,0.000
1759631036.273,13.184,-42.969,-42.480,-45.410,0.000
1759631036.277,-57.129,-41.504,-35.156,-66.895,0.000
1759631036.281,-84.961,-39.062,-27.344,-67.383,0.000
1759631036.285,-33.691,-44.922,-31.738,-45.410,0.000
1759631036.289,11.719,-50.781,-39.062,-32.227,0.000
1759631036.293,-40.039,-44.922,-36.621,-53.711,0.000
1759631036.296,-81.055,-40.527,-34.668,-62.012,0.000
1759631036.300,-44.922,-39.062,-39.062,-52.246,0.000
1759631036.304,9.277,-40.039,-42.969,-37.109,0.000
1759631036.308,-14.160,-35.156,-40.527,-47.852,0.000
1759631036.312,-77.637,-38.574,-39.062,-67.871,0.000
1759631036.316,-74.219,-42.969,-42.969,-68.848,0.000
1759631036.320,-2.930,-41.016,-43.945,-48.828,0.000
1759631036.324,8.789,-36.133,-38.574,-40.527,0.000
1759631036.328,-64.453,-37.598,-34.180,-56.641,0.000
1759631036.332,-78.613,-43.945,-37.598,-53.223,0.000
1759631036.336,-22.461,-44.434,-46.875,-42.480,0.000
1759631036.339,11.230,-41.504,-43.457,-44.922,0.000
1759631036.343,-46.875,-39.551,-34.180,-58.594,0.000
1759631036.347,-83.984,-40.039,-37.598,-66.895,0.000
1759631036.351,-44.434,-39.062,-39.062,-60.059,0.000
1759631036.355,10.742,-35.645,-40.039,-45.410,0.000
1759631036.359,-35.645,-38.086,-41.016,-69.824,0.000
1759631036.363,-87.402,-41.504,-38.086,-82.031,0.000
1759631036.367,-58.105,-40.527,-41.016,-68.848,0.000
1759631036.371,5.859,-43.457,-41.016,-43.457,0.000
1759631036.375,-7.812,-46.387,-39.062,-51.758,0.000
1759631036.379,-77.148,-48.340,-45.410,-82.031,0.000
1759631036.382,-77.637,-49.805,-49.805,-79.590,0.000
1759631036.386,-9.766,-49.316,-46.387,-56.641,0.000
1759631036.390,4.883,-44.922,-45.898,-53.223,0.000
1759631036.394,-67.871,-46.387,-48.340,-82.031,0.000
1759631036.398,-81.055,-45.898,-50.293,-80.566,0.000
1759631036.402,-22.949,-43.457,-47.852,-52.246,0.000
1759631036.406,17.578,-41.992,-43.945,-42.969,0.000
1759631036.410,-38.086,-42.969,-40.039,-63.965,0.000
1759631036.414,-86.426,-46.387,-34.668,-70.801,0.000
1759631036.418,-41.016,-47.363,-38.086,-48.828,0.000
1759631036.422,29.297,-45.410,-38.574,-22.461,0.000
1759631036.425,-11.230,-42.480,-36.621,-47.363,0.000
1759631036.429,-72.754,-43.457,-41.016,-74.219,0.000
1759631036.433,-47.363,-42.480,-41.992,-50.293,0.000
1759631036.437,15.137,-40.527,-52.734,-26.855,0.000
1759631036.441,1.465,-44.922,-56.152,-49.316,0.000
1759631036.445,-71.289,-47.363,-47.363,-66.895,0.000
1759631036.449,-75.195,-47.852,-47.852,-62.500,0.000
1759631036.453,-4.883,-47.852,-51.270,-39.062,0.000
1759631036.457,12.695,-49.316,-48.828,-39.551,0.000
1759631036.461,-48.828,-50.781,-44.434,-56.152,0.000
1759631036.465,-76.660,-47.852,-44.434,-54.688,0.000
1759631036.468,-36.133,-46.387,-47.852,-46.875,0.000
1759631036.472,15.137,-46.387,-45.898,-32.715,0.000
1759631036.476,-31.250,-46.875,-39.062,-53.223,0.000
1759631036.480,-78.613,-43.457,-38.086,-57.129,0.000
1759631036.484,-49.805,-39.062,-39.062,-37.598,0.000
1759631036.488,11.719,-37.109,-39.062,-26.855,0.000
1759631036.492,-17.578,-30.762,-28.809,-38.574,0.000
1759631036.496,-75.195,-25.391,-6.348,-60.059,0.000
1759631036.500,-62.988,-33.203,-16.602,-65.918,0.000
1759631036.504,-6.348,-30.762,-33.691,-52.734,0.000
1759631036.508,-17.090,-23.926,-9.277,-62.012,0.000
1759631036.511,-92.773,-27.344,1.953,-98.633,0.000
1759631036.515,-110.840,-30.273,-14.160,-117.188,0.000
1759631036.519,-75.684,-14.648,-18.066,-121.582,0.000
1759631036.523,-60.059,6.836,7.812,-116.211,0.000
1759631036.527,-136.719,-7.324,13.184,-146.973,0.000
1759631036.531,-199.707,-22.949,9.766,-191.895,0.000
1759631036.535,-179.688,-8.301,24.902,-200.684,0.000
1759631036.539,-160.156,7.324,33.203,-214.844,0.000
1759631036.543,-236.328,2.441,41.992,-266.113,0.000
1759631036.547,-304.688,6.836,43.457,-298.340,0.000
1759631036.551,-287.109,35.156,56.641,-294.922,0.000
1759631036.554,-251.465,52.246,50.293,-295.898,0.000
1759631036.558,-302.246,41.016,36.133,-330.566,0.000
1759631036.562,-360.352,38.574,35.156,-354.004,0.000
1759631036.566,-340.820,50.293,28.809,-339.844,0.000
1759631036.570,-282.227,57.129,27.344,-310.059,0.000
1759631036.574,-282.227,53.223,40.039,-318.848,0.000
1759631036.578,-338.867,42.969,41.016,-341.797,0.000
1759631036.582,-324.219,43.945,27.344,-317.383,0.000
1759631036.586,-256.348,43.945,19.043,-281.250,0.000
1759631036.586,-256.348,43.945,19.043,-281.250,0.000
1759631036.590,-218.750,41.504,8.301,-262.695,0.000
1759631036.593,-259.277,38.574,14.160,-262.695,0.000
1759631036.597,-277.832,31.738,20.996,-246.094,0.000
1759631036.601,-211.914,30.762,8.789,-218.750,0.000
1759631036.605,-136.719,26.855,0.488,-181.152,0.000
1759631036.609,-159.180,18.066,10.254,-169.922,0.000
1759631036.613,-184.570,11.719,11.230,-159.668,0.000
1759631036.617,-139.160,2.930,-3.418,-131.836,0.000
1759631036.621,-55.664,-5.371,-15.137,-101.074,0.000
1759631036.625,-46.875,-6.348,-13.184,-92.285,0.000
1759631036.629,-94.238,-18.555,-11.719,-88.379,0.000
1759631036.632,-85.449,-28.320,-20.996,-61.035,0.000
1759631036.636,3.418,-30.762,-31.250,-27.344,0.000
1759631036.640,41.504,-34.668,-34.180,-7.812,0.000
1759631036.644,-28.320,-42.969,-38.086,-18.555,0.000
1759631036.648,-31.250,-51.270,-46.387,-11.719,0.000
1759631036.652,43.457,-57.129,-50.293,20.020,0.000
1759631036.656,94.238,-62.500,-49.805,39.062,0.000
1759631036.660,49.316,-62.988,-47.852,28.320,0.000
1759631036.664,7.324,-68.359,-54.688,13.184,0.000
1759631036.668,52.246,-71.289,-64.453,28.809,0.000
1759631036.671,122.559,-67.871,-58.105,65.430,0.000
1759631036.675,93.750,-74.707,-54.199,54.688,0.000
1759631036.679,32.715,-78.125,-61.035,34.180,0.000
1759631036.683,49.316,-78.613,-59.082,43.457,0.000
1759631036.687,112.305,-84.473,-61.523,65.430,0.000
1759631036.691,106.445,-84.473,-64.941,54.688,0.000
1759631036.695,48.828,-80.566,-66.895,36.133,0.000
1759631036.699,56.641,-79.102,-65.430,49.316,0.000
1759631036.703,124.512,-83.496,-68.359,79.590,0.000
1759631036.707,123.535,-83.496,-73.730,75.684,0.000
1759631036.711,50.293,-79.590,-69.336,43.457,0.000
1759631036.714,28.809,-81.543,-71.777,40.039,0.000
1759631036.718,74.219,-88.867,-73.730,60.059,0.000
1759631036.722,116.699,-91.797,-68.848,60.547,0.000
1759631036.726,65.430,-86.426,-63.477,33.691,0.000
1759631036.730,23.926,-81.543,-59.082,23.926,0.000
1759631036.734,51.758,-83.984,-62.012,37.109,0.000
1759631036.738,97.656,-86.914,-70.312,58.594,0.000
1759631036.742,66.406,-83.496,-70.312,32.715,0.000
1759631036.746,12.207,-78.125,-65.430,14.648,0.000
1759631036.750,26.367,-81.055,-63.477,22.949,0.000
1759631036.754,91.309,-83.984,-66.406,32.715,0.000
1759631036.757,89.355,-77.148,-68.359,26.367,0.000
1759631036.761,24.902,-73.730,-64.453,5.371,0.000
1759631036.765,14.648,-69.336,-57.129,16.602,0.000
1759631036.769,63.477,-65.430,-63.477,29.785,0.000
1759631036.773,86.426,-69.336,-68.848,23.438,0.000
1759631036.777,21.484,-67.383,-61.035,3.418,0.000
1759631036.781,-10.742,-68.359,-66.895,0.000,0.000
1759631036.785,35.156,-69.824,-72.266,16.113,0.000
1759631036.789,86.426,-62.500,-66.895,33.691,0.000
1759631036.793,34.668,-62.012,-65.918,13.184,0.000
1759631036.797,-21.484,-65.430,-66.895,-1.465,0.000
1759631036.800,10.254,-69.336,-65.918,11.719,0.000
1759631036.804,72.266,-65.430,-64.453,22.949,0.000
1759631036.808,41.016,-61.523,-63.477,9.277,0.000
1759631036.812,-22.461,-64.941,-67.383,-10.742,0.000
1759631036.816,-18.066,-63.965,-69.336,-17.090,0.000
1759631036.820,39.551,-59.570,-67.871,2.930,0.000
1759631036.824,37.109,-58.105,-63.965,0.000,0.000
1759631036.828,-33.691,-58.594,-63.965,-27.832,0.000
1759631036.832,-41.504,-55.664,-64.941,-25.879,0.000
1759631036.836,17.578,-54.688,-60.547,-1.465,0.000
1759631036.839,49.805,-57.129,-55.176,4.395,0.000
1759631036.843,-14.160,-60.547,-52.734,-27.344,0.000
1759631036.847,-51.758,-63.965,-53.711,-39.551,0.000
1759631036.851,-4.395,-62.012,-52.246,-14.648,0.000
1759631036.855,45.898,-64.941,-53.711,3.906,0.000
1759631036.859,-3.418,-67.383,-57.129,-18.066,0.000
1759631036.863,-48.828,-59.570,-55.176,-33.203,0.000
1759631036.867,-16.113,-53.223,-56.152,-20.996,0.000
1759631036.871,46.875,-49.805,-57.129,2.441,0.000
1759631036.875,30.273,-48.340,-52.246,-8.301,0.000
1759631036.879,-37.109,-47.852,-48.340,-24.414,0.000
1759631036.882,-32.715,-48.340,-46.387,-9.766,0.000
1759631036.886,31.738,-55.176,-50.781,4.395,0.000
1759631036.890,33.203,-54.688,-50.781,-2.930,0.000
1759631036.894,-42.480,-51.270,-49.805,-32.715,0.000
1759631036.898,-50.293,-52.734,-47.363,-29.785,0.000
1759631036.902,9.277,-55.664,-47.363,-9.277,0.000
1759631036.906,39.551,-56.641,-54.199,-12.695,0.000
1759631036.910,-18.555,-56.152,-50.293,-28.809,0.000
1759631036.914,-49.316,-55.176,-48.828,-37.598,0.000
1759631036.918,-12.207,-55.664,-53.223,-27.832,0.000
1759631036.922,39.062,-55.176,-53.711,-16.602,0.000
1759631036.925,4.883,-50.781,-49.805,-31.250,0.000
1759631036.929,-48.340,-49.316,-45.898,-45.898,0.000
1759631036.933,-25.391,-52.734,-48.828,-34.180,0.000
1759631036.937,34.180,-45.898,-50.781,-10.742,0.000
1759631036.941,21.484,-41.992,-49.316,-21.484,0.000
1759631036.945,-40.039,-48.828,-45.410,-43.945,0.000
1759631036.949,-46.387,-48.340,-45.410,-47.363,0.000
1759631036.953,16.113,-42.969,-48.340,-31.738,0.000
1759631036.957,37.109,-40.039,-47.363,-30.762,0.000
1759631036.961,-26.367,-42.969,-44.922,-48.340,0.000
1759631036.965,-52.246,-44.922,-47.852,-53.223,0.000
1759631036.968,-10.742,-45.410,-52.734,-41.992,0.000
1759631036.972,38.574,-43.945,-44.434,-19.531,0.000
1759631036.976,-9.766,-40.039,-40.527,-39.062,0.000
1759631036.980,-60.059,-43.945,-42.969,-52.246,0.000
1759631036.984,-24.414,-45.898,-43.457,-30.273,0.000
1759631036.988,33.691,-44.434,-44.922,-13.672,0.000
1759631036.992,-4.883,-41.016,-43.945,-34.668,0.000
1759631036.996,-65.918,-35.645,-41.992,-52.734,0.000
1759631037.000,-50.293,-39.551,-42.969,-44.922,0.000
1759631037.004,16.113,-47.363,-46.875,-13.184,0.000
1759631037.007,7.812,-48.340,-52.246,-17.090,0.000
1759631037.011,-67.383,-48.828,-53.711,-55.176,0.000
1759631037.015,-72.754,-46.387,-52.246,-51.758,0.000
1759631037.019,-12.207,-44.922,-54.199,-30.762,0.000
1759631037.023,13.184,-46.875,-51.270,-37.109,0.000
1759631037.027,-51.270,-48.340,-42.480,-57.617,0.000
1759631037.031,-84.473,-50.293,-44.922,-56.152,0.000
1759631037.035,-32.715,-53.223,-49.316,-28.320,0.000
1759631037.039,14.160,-55.176,-51.758,-13.672,0.000
1759631037.043,-38.574,-50.781,-51.758,-40.527,0.000
1759631037.046,-84.961,-51.758,-50.781,-49.805,0.000
1759631037.050,-54.199,-56.641,-56.641,-41.016,0.000
1759631037.054,6.348,-55.664,-57.617,-22.949,0.000
1759631037.058,-12.695,-53.711,-48.828,-29.297,0.000
1759631037.062,-63.477,-54.199,-41.016,-44.922,0.000
1759631037.066,-52.246,-59.570,-43.945,-44.922,0.000
1759631037.070,1.953,-58.105,-53.711,-34.668,0.000
1759631037.074,1.953,-47.852,-50.781,-34.668,0.000
1759631037.078,-60.547,-42.480,-43.945,-42.480,0.000
1759631037.082,-66.895,-46.875,-45.410,-41.504,0.000
1759631037.086,-4.883,-52.246,-44.434,-27.344,0.000
1759631037.089,18.555,-45.898,-42.480,-20.020,0.000
1759631037.093,-45.410,-37.598,-37.598,-37.109,0.000
1759631037.097,-68.359,-40.039,-38.574,-43.457,0.000
1759631037.101,-16.113,-43.457,-39.551,-28.809,0.000
1759631037.105,30.273,-38.574,-38.086,-16.113,0.000
1759631037.109,-22.461,-39.551,-42.969,-38.574,0.000
1759631037.113,-71.289,-42.969,-40.527,-49.316,0.000
1759631037.117,-40.527,-42.480,-41.504,-33.203,0.000
1759631037.121,20.996,-43.945,-44.434,-8.789,0.000
1759631037.125,6.836,-44.434,-40.039,-18.066,0.000
1759631037.129,-55.664,-50.781,-41.504,-39.062,0.000
1759631037.132,-57.129,-52.734,-43.457,-34.668,0.000
1759631037.136,11.719,-44.434,-44.434,-9.766,0.000
1759631037.140,22.949,-39.062,-41.992,-10.742,0.000
1759631037.144,-52.734,-38.574,-42.969,-49.316,0.000
1759631037.148,-74.707,-36.133,-48.340,-67.871,0.000
1759631037.152,-11.230,-35.156,-45.410,-45.898,0.000
1759631037.156,29.297,-33.691,-41.504,-26.367,0.000
1759631037.160,-28.320,-33.691,-37.598,-55.664,0.000
1759631037.164,-65.430,-38.574,-35.645,-69.336,0.000
1759631037.168,-33.691,-39.551,-37.598,-51.270,0.000
1759631037.171,18.066,-42.969,-36.133,-33.691,0.000
1759631037.175,-18.555,-43.945,-42.480,-60.059,0.000
1759631037.179,-75.684,-41.992,-48.340,-83.496,0.000
1759631037.183,-47.363,-45.898,-38.574,-62.012,0.000
1759631037.187,17.578,-45.410,-42.969,-39.062,0.000
1759631037.191,-3.906,-40.527,-44.434,-60.547,0.000
1759631037.195,-63.477,-39.551,-33.203,-76.660,0.000
1759631037.199,-51.270,-38.086,-29.297,-67.871,0.000
1759631037.203,7.812,-43.945,-33.691,-50.781,0.000
1759631037.207,15.625,-43.945,-40.527,-54.199,0.000
1759631037.211,-50.781,-35.645,-35.645,-73.242,0.000
1759631037.214,-64.941,-34.668,-35.645,-72.266,0.000
1759631037.218,-4.883,-38.574,-36.133,-65.918,0.000
1759631037.222,32.227,-36.133,-37.598,-57.129,0.000
1759631037.226,-32.227,-34.180,-42.480,-71.777,0.000
1759631037.230,-72.754,-41.504,-39.551,-82.031,0.000
1759631037.234,-25.391,-40.039,-38.574,-67.871,0.000
1759631037.238,25.879,-35.645,-43.457,-54.688,0.000
1759631037.242,-6.836,-32.227,-37.598,-65.918,0.000
1759631037.246,-63.477,-34.668,-31.738,-80.566,0.000
1759631037.250,-50.293,-41.992,-37.109,-80.566,0.000
1759631037.254,20.996,-35.645,-37.109,-55.664,0.000
1759631037.257,8.301,-31.250,-30.273,-62.500,0.000
1759631037.261,-53.711,-35.645,-25.391,-85.938,0.000
1759631037.265,-54.688,-39.062,-30.273,-80.566,0.000
1759631037.269,0.000,-38.574,-38.086,-69.824,0.000
1759631037.273,20.020,-36.621,-36.621,-60.547,0.000
1759631037.277,-50.293,-35.156,-34.180,-76.660,0.000
1759631037.281,-74.707,-34.180,-40.527,-97.656,0.000
1759631037.285,-12.207,-32.227,-38.086,-77.148,0.000
1759631037.289,32.715,-32.227,-35.645,-58.594,0.000
1759631037.293,-28.809,-30.762,-35.645,-78.613,0.000
1759631037.297,-79.590,-36.621,-38.086,-97.168,0.000
1759631037.300,-46.387,-41.992,-42.969,-88.379,0.000
1759631037.304,19.043,-37.109,-42.969,-62.988,0.000
1759631037.308,-5.859,-33.203,-37.598,-72.754,0.000
1759631037.312,-70.312,-38.086,-34.668,-94.238,0.000
1759631037.316,-53.711,-44.922,-38.086,-86.426,0.000
1759631037.320,19.531,-41.992,-41.016,-55.176,0.000
1759631037.324,7.324,-39.062,-41.016,-68.359,0.000
1759631037.328,-65.918,-40.527,-40.039,-100.586,0.000
1759631037.332,-69.336,-40.039,-37.598,-88.379,0.000
1759631037.335,-12.695,-45.898,-38.086,-66.895,0.000
1759631037.339,7.812,-43.945,-43.945,-66.895,0.000
1759631037.343,-49.316,-36.621,-42.480,-87.891,0.000
1759631037.347,-72.754,-37.598,-41.504,-83.984,0.000
1759631037.351,-34.180,-41.504,-46.875,-67.383,0.000
1759631037.355,5.859,-42.480,-47.363,-62.500,0.000
1759631037.359,-44.922,-44.922,-42.969,-89.355,0.000
1759631037.363,-84.961,-46.875,-35.645,-91.309,0.000
1759631037.367,-46.875,-45.898,-39.062,-68.848,0.000
1759631037.371,9.766,-49.805,-46.875,-57.129,0.000
1759631037.375,-9.766,-48.340,-43.945,-61.035,0.000
1759631037.378,-70.801,-41.992,-47.852,-85.938,0.000
1759631037.382,-68.848,-39.551,-51.270,-88.867,0.000
1759631037.386,3.418,-35.645,-50.293,-53.223,0.000
1759631037.390,20.996,-32.715,-42.969,-48.828,0.000
1759631037.394,-44.922,-39.062,-41.992,-79.590,0.000
1759631037.398,-62.012,-42.969,-46.875,-75.684,0.000
1759631037.402,-1.465,-39.062,-42.480,-49.805,0.000
1759631037.406,35.645,-34.180,-40.527,-36.133,0.000
1759631037.410,-20.996,-35.156,-36.133,-49.805,0.000
1759631037.414,-59.082,-41.016,-41.992,-62.500,0.000
1759631037.417,-29.297,-41.016,-48.828,-54.688,0.000
1759631037.421,25.879,-38.574,-41.016,-23.926,0.000
1759631037.425,-12.695,-38.574,-41.504,-35.645,0.000
1759631037.429,-75.195,-39.551,-46.875,-64.453,0.000
1759631037.433,-47.852,-38.086,-46.387,-56.152,0.000
1759631037.437,24.902,-33.203,-45.898,-31.738,0.000
1759631037.441,8.301,-37.109,-43.457,-36.621,0.000
1759631037.445,-61.523,-43.945,-41.992,-56.152,0.000
1759631037.449,-54.199,-41.504,-42.969,-54.688,0.000
1759631037.453,13.184,-38.574,-44.434,-35.156,0.000
1759631037.457,21.484,-39.062,-42.969,-37.598,0.000
1759631037.460,-47.363,-41.504,-43.457,-68.359,0.000
1759631037.464,-61.035,-37.598,-42.969,-68.848,0.000
1759631037.468,-12.207,-35.156,-41.992,-37.598,0.000
1759631037.472,16.113,-37.109,-46.387,-32.715,0.000
1759631037.476,-39.551,-36.133,-48.340,-66.406,0.000
1759631037.480,-81.543,-40.039,-44.434,-72.266,0.000
1759631037.484,-41.504,-37.109,-40.039,-59.570,0.000
1759631037.488,25.879,-37.109,-40.039,-36.133,0.000
1759631037.492,-13.672,-43.945,-43.457,-48.340,0.000
1759631037.496,-75.684,-43.457,-39.062,-63.477,0.000
1759631037.500,-53.223,-43.945,-34.180,-53.223,0.000
1759631037.503,5.859,-41.016,-42.480,-45.410,0.000
1759631037.507,0.488,-39.551,-43.457,-56.152,0.000
1759631037.511,-53.711,-35.645,-36.621,-71.777,0.000
1759631037.515,-54.199,-40.527,-34.668,-62.500,0.000
1759631037.519,-1.465,-47.852,-36.621,-42.969,0.000
1759631037.523,13.184,-42.480,-37.598,-41.504,0.000
1759631037.527,-56.152,-43.945,-34.668,-75.195,0.000
1759631037.531,-89.844,-51.270,-36.133,-80.078,0.000
1759631037.535,-40.039,-52.734,-41.504,-56.641,0.000
1759631037.539,8.301,-48.340,-40.527,-45.410,0.000
1759631037.543,-33.203,-44.922,-33.203,-59.570,0.000
1759631037.546,-75.195,-46.387,-29.785,-70.312,0.000
1759631037.550,-41.016,-47.363,-32.715,-62.988,0.000
1759631037.554,14.648,-42.969,-37.109,-51.758,0.000
1759631037.558,-12.695,-40.527,-30.273,-51.270,0.000
1759631037.562,-70.801,-46.875,-31.738,-60.547,0.000
1759631037.566,-63.965,-47.852,-40.527,-71.777,0.000
1759631037.570,-1.465,-43.457,-40.039,-45.898,0.000
1759631037.574,1.953,-41.016,-37.598,-44.434,0.000
1759631037.578,-63.477,-35.645,-36.133,-71.777,0.000
1759631037.582,-80.078,-37.598,-37.598,-74.219,0.000
1759631037.586,-14.648,-37.598,-38.086,-47.852,0.000
1759631037.589,20.996,-32.715,-31.738,-30.762,0.000
1759631037.593,-38.574,-32.227,-34.180,-63.477,0.000
1759631037.597,-63.965,-35.645,-41.992,-74.707,0.000
1759631037.601,-22.949,-35.645,-39.062,-48.340,0.000
1759631037.605,21.973,-36.133,-40.527,-33.691,0.000
1759631037.609,-30.273,-39.551,-45.898,-57.617,0.000
1759631037.613,-80.566,-34.180,-49.316,-68.848,0.000
1759631037.617,-51.758,-38.086,-48.340,-50.293,0.000
1759631037.621,7.812,-46.387,-45.410,-36.621,0.000
1759631037.625,-3.906,-36.621,-41.504,-53.223,0.000
1759631037.628,-62.500,-32.227,-31.250,-67.871,0.000
1759631037.632,-57.129,-40.039,-27.832,-61.035,0.000
1759631037.636,11.719,-42.480,-31.250,-35.645,0.000
1759631037.640,21.973,-40.527,-28.809,-41.504,0.000
1759631037.644,-52.734,-41.504,-35.156,-77.637,0.000
1759631037.648,-63.477,-41.992,-37.598,-59.570,0.000
1759631037.652,-9.277,-41.992,-40.039,-28.809,0.000
1759631037.656,9.277,-41.992,-47.852,-38.574,0.000
1759631037.660,-44.434,-36.621,-35.156,-59.082,0.000
1759631037.664,-71.289,-38.574,-31.250,-66.406,0.000
1759631037.668,-38.574,-37.598,-37.109,-57.617,0.000
1759631037.671,22.949,-31.738,-33.691,-39.062,0.000
1759631037.675,-9.766,-36.133,-30.762,-49.805,0.000
1759631037.679,-73.730,-37.109,-35.156,-66.895,0.000
1759631037.683,-53.223,-38.086,-40.527,-58.105,0.000
1759631037.687,14.648,-39.551,-38.574,-36.133,0.000
1759631037.691,-3.418,-34.668,-32.715,-47.363,0.000
1759631037.695,-70.801,-40.039,-33.691,-65.918,0.000
1759631037.699,-68.359,-41.504,-40.039,-63.965,0.000
1759631037.703,-5.371,-35.645,-41.504,-43.457,0.000
1759631037.707,10.254,-33.691,-41.016,-44.922,0.000
1759631037.710,-49.805,-32.227,-42.480,-78.613,0.000
1759631037.714,-66.406,-32.227,-39.551,-84.961,0.000
1759631037.718,-19.043,-32.715,-38.574,-64.453,0.000
1759631037.722,11.719,-34.668,-43.945,-62.012,0.000
1759631037.726,-50.781,-38.574,-42.969,-88.867,0.000
1759631037.730,-91.309,-38.086,-38.574,-89.355,0.000
1759631037.734,-53.223,-38.086,-39.062,-62.988,0.000
1759631037.738,7.812,-38.574,-41.504,-28.809,0.000
1759631037.742,-29.297,-41.016,-38.086,-44.922,0.000
1759631037.746,-90.332,-41.016,-37.109,-78.125,0.000
1759631037.750,-58.594,-37.598,-37.109,-57.129,0.000
1759631037.753,10.254,-37.109,-34.180,-25.879,0.000
1759631037.757,-5.371,-34.668,-33.691,-33.691,0.000
1759631037.761,-67.871,-32.227,-33.203,-52.246,0.000
1759631037.765,-66.895,-33.691,-32.227,-43.945,0.000
1759631037.769,-9.766,-38.086,-39.062,-20.020,0.000
1759631037.773,10.254,-38.086,-37.598,-18.555,0.000
1759631037.777,-51.758,-39.551,-27.832,-36.621,0.000
1759631037.781,-83.984,-44.922,-34.668,-40.527,0.000
1759631037.785,-39.551,-45.898,-39.551,-28.320,0.000
1759631037.789,0.977,-40.527,-37.109,-22.461,0.000
1759631037.792,-51.270,-37.109,-41.016,-49.805,0.000
1759631037.796,-84.473,-39.551,-37.109,-53.711,0.000
1759631037.800,-49.805,-44.922,-37.598,-26.855,0.000
1759631037.804,-3.418,-44.434,-45.898,-18.066,0.000
1759631037.808,-17.090,-38.086,-36.621,-27.344,0.000
1759631037.812,-70.801,-35.156,-38.086,-36.621,0.000
1759631037.816,-73.242,-41.016,-50.293,-35.156,0.000
1759631037.820,-12.695,-46.387,-56.641,-18.555,0.000
1759631037.824,-10.254,-41.992,-52.734,-23.926,0.000
1759631037.828,-66.406,-38.574,-42.480,-34.180,0.000
1759631037.832,-70.312,-42.969,-41.016,-29.785,0.000
1759631037.835,-14.648,-44.922,-41.016,-16.113,0.000
1759631037.839,9.766,-42.969,-39.551,-13.672,0.000
1759631037.843,-51.758,-45.410,-36.621,-33.691,0.000
1759631037.847,-75.684,-42.480,-33.203,-34.180,0.000
1759631037.851,-26.855,-39.551,-34.668,-20.020,0.000
1759631037.855,19.531,-41.504,-40.039,-10.742,0.000
1759631037.859,-26.367,-41.016,-41.504,-29.297,0.000
1759631037.863,-80.566,-42.480,-38.574,-44.434,0.000
1759631037.867,-57.129,-44.922,-40.039,-36.133,0.000
1759631037.871,9.766,-45.898,-44.434,-10.254,0.000
1759631037.875,-12.695,-43.457,-36.621,-19.531,0.000
1759631037.878,-72.266,-40.039,-33.203,-39.551,0.000
1759631037.882,-53.711,-43.945,-37.598,-41.016,0.000
1759631037.886,10.254,-46.387,-42.969,-24.902,0.000
1759631037.890,9.277,-49.805,-43.945,-20.996,0.000
1759631037.894,-69.824,-57.617,-40.527,-55.664,0.000
1759631037.898,-86.426,-52.734,-38.574,-64.453,0.000
1759631037.902,-21.973,-48.340,-43.457,-37.109,0.000
1759631037.906,7.324,-47.363,-45.898,-29.297,0.000
1759631037.910,-59.082,-48.828,-41.504,-59.082,0.000
1759631037.914,-84.473,-51.270,-36.133,-59.082,0.000
1759631037.918,-32.715,-49.316,-34.180,-35.156,0.000
1759631037.921,20.508,-47.363,-33.691,-15.137,0.000
1759631037.925,-30.762,-46.875,-33.691,-29.297,0.000
1759631037.929,-83.496,-43.945,-33.203,-51.270,0.000
1759631037.933,-41.504,-42.480,-37.598,-32.715,0.000
1759631037.937,19.043,-49.316,-40.527,-8.789,0.000
1759631037.941,-9.766,-48.828,-36.621,-32.227,0.000
1759631037.945,-62.012,-45.410,-34.668,-44.922,0.000
1759631037.949,-49.316,-44.434,-35.645,-26.367,0.000
1759631037.953,9.766,-40.039,-40.527,-16.602,0.000
1759631037.957,15.625,-39.551,-38.574,-26.855,0.000
1759631037.960,-50.781,-38.574,-37.109,-48.340,0.000
1759631037.964,-64.453,-38.086,-40.039,-50.293,0.000
1759631037.968,-13.184,-39.551,-39.062,-31.250,0.000
1759631037.972,23.438,-34.668,-34.180,-19.043,0.000
1759631037.976,-31.250,-33.203,-32.715,-33.691,0.000
1759631037.980,-70.801,-42.969,-36.133,-37.598,0.000
1759631037.984,-37.598,-44.922,-43.457,-36.133,0.000
1759631037.988,18.555,-35.645,-44.434,-24.414,0.000
1759631037.992,-9.277,-34.668,-39.062,-38.086,0.000
1759631037.996,-64.941,-39.062,-37.109,-55.176,0.000
1759631038.000,-48.828,-41.016,-38.574,-53.711,0.000
1759631038.003,12.695,-42.480,-37.109,-33.691,0.000
1759631038.007,-4.883,-39.062,-35.645,-32.227,0.000
1759631038.011,-70.801,-41.016,-36.621,-44.434,0.000
1759631038.015,-65.918,-44.434,-35.645,-34.180,0.000
1759631038.019,-8.301,-44.434,-37.598,-22.461,0.000
1759631038.023,11.230,-41.992,-35.156,-10.742,0.000
1759631038.027,-45.898,-42.969,-33.203,-25.879,0.000
1759631038.031,-74.707,-46.875,-37.598,-45.410,0.000
1759631038.035,-23.438,-40.039,-37.109,-29.785,0.000
1759631038.039,16.602,-35.156,-35.645,-19.531,0.000
1759631038.043,-36.621,-35.156,-33.691,-44.922,0.000
1759631038.046,-75.684,-35.645,-34.180,-51.270,0.000
1759631038.050,-41.016,-37.598,-38.086,-36.621,0.000
1759631038.054,19.531,-36.621,-37.598,-13.672,0.000
1759631038.058,-11.719,-35.156,-32.715,-31.738,0.000
1759631038.062,-72.266,-38.086,-34.180,-56.152,0.000
1759631038.066,-55.176,-41.016,-41.016,-39.062,0.000
1759631038.070,7.324,-41.504,-41.504,-8.301,0.000
1759631038.074,-8.789,-39.551,-41.016,-31.738,0.000
1759631038.078,-70.312,-33.203,-36.133,-63.965,0.000
1759631038.082,-57.617,-28.809,-33.203,-47.363,0.000
1759631038.085,-4.883,-34.180,-42.969,-27.832,0.000
1759631038.089,11.230,-36.133,-46.875,-26.855,0.000
1759631038.093,-42.969,-38.086,-43.945,-44.434,0.000
1759631038.097,-73.730,-44.434,-44.434,-48.828,0.000
1759631038.101,-28.320,-44.922,-44.434,-34.668,0.000
1759631038.105,17.090,-43.945,-42.480,-22.461,0.000
1759631038.109,-36.621,-48.340,-43.457,-43.457,0.000
1759631038.113,-76.660,-47.852,-41.992,-47.852,0.000
1759631038.117,-42.969,-45.898,-40.527,-30.762,0.000
1759631038.121,12.207,-44.922,-50.293,-26.855,0.000
1759631038.124,-9.766,-36.133,-47.363,-41.504,0.000
1759631038.128,-73.242,-33.691,-35.156,-53.223,0.000
1759631038.132,-66.406,-37.109,-35.645,-45.410,0.000
1759631038.136,-5.859,-40.527,-42.969,-25.391,0.000
1759631038.140,-5.371,-35.645,-40.527,-31.738,0.000
1759631038.144,-66.406,-31.738,-35.645,-53.223,0.000
1759631038.148,-86.426,-37.598,-38.086,-54.688,0.000
1759631038.152,-24.902,-38.574,-40.527,-34.668,0.000
1759631038.156,16.602,-41.016,-38.086,-24.414,0.000
1759631038.160,-48.828,-43.457,-35.645,-36.133,0.000
1759631038.164,-87.891,-47.363,-42.480,-48.340,0.000
1759631038.167,-46.387,-49.316,-46.387,-41.992,0.000
1759631038.171,9.277,-46.875,-41.992,-17.578,0.000
1759631038.175,-27.832,-48.340,-36.133,-36.133,0.000
1759631038.179,-78.613,-49.316,-37.109,-61.035,0.000
1759631038.183,-49.805,-46.875,-40.527,-49.805,0.000
1759631038.187,15.137,-50.293,-38.574,-21.484,0.000
1759631038.191,-9.766,-49.316,-35.156,-30.762,0.000
1759631038.195,-75.684,-46.387,-37.109,-58.105,0.000
1759631038.199,-62.988,-44.922,-33.691,-43.457,0.000
1759631038.203,6.348,-41.504,-32.227,-5.859,0.000
1759631038.206,11.230,-38.086,-37.109,-11.719,0.000
1759631038.210,-51.758,-41.504,-38.574,-45.410,0.000
1759631038.214,-72.266,-45.898,-38.574,-43.945,0.000
1759631038.218,-11.230,-45.898,-39.062,-13.184,0.000
1759631038.222,35.645,-42.969,-36.133,-3.906,0.000
1759631038.226,-31.738,-40.527,-31.250,-26.855,0.000
1759631038.230,-67.871,-42.480,-31.738,-31.738,0.000
1759631038.234,-22.461,-43.945,-31.250,-18.555,0.000
1759631038.238,26.855,-38.574,-34.180,-1.465,0.000
1759631038.242,-11.719,-35.156,-33.691,-18.066,0.000
1759631038.246,-61.035,-41.016,-26.855,-28.809,0.000
1759631038.249,-40.527,-45.898,-26.855,-11.719,0.000
1759631038.253,17.090,-49.805,-34.668,5.859,0.000
1759631038.257,0.977,-48.828,-31.250,-10.742,0.000
1759631038.261,-65.918,-45.410,-26.855,-33.203,0.000
1759631038.265,-63.965,-46.387,-29.297,-22.461,0.000
1759631038.269,-4.395,-49.316,-35.645,-7.812,0.000
1759631038.273,20.020,-44.434,-36.621,-7.324,0.000
1759631038.277,-41.992,-44.434,-30.762,-27.832,0.000
1759631038.281,-76.172,-44.922,-32.715,-35.645,0.000
1759631038.285,-26.855,-41.992,-41.992,-19.531,0.000
1759631038.289,18.555,-46.875,-42.969,-5.859,0.000
1759631038.292,-31.250,-51.270,-40.039,-23.926,0.000
1759631038.296,-75.684,-48.828,-43.945,-37.598,0.000
1759631038.300,-38.574,-50.293,-45.898,-25.879,0.000
1759631038.304,24.902,-51.270,-41.992,-11.719,0.000
1759631038.308,-5.371,-45.410,-36.621,-21.484,0.000
1759631038.312,-68.848,-48.828,-39.062,-33.691,0.000
1759631038.316,-49.805,-52.734,-41.992,-29.297,0.000
1759631038.320,21.973,-46.387,-37.109,-7.812,0.000
1759631038.324,6.348,-43.457,-35.645,-16.113,0.000
1759631038.328,-62.500,-50.781,-38.086,-35.156,0.000
1759631038.332,-61.523,-49.316,-36.133,-28.320,0.000
1759631038.335,3.906,-44.434,-36.133,-7.324,0.000
1759631038.339,30.762,-45.898,-34.668,1.465,0.000
1759631038.343,-29.785,-44.434,-30.762,-16.602,0.000
1759631038.347,-61.035,-44.434,-35.156,-26.367,0.000
1759631038.351,-11.719,-47.363,-40.527,-12.695,0.000
1759631038.355,43.457,-45.898,-40.527,9.766,0.000
1759631038.359,-10.742,-39.062,-41.016,-13.672,0.000
1759631038.363,-70.312,-35.645,-37.598,-34.668,0.000
1759631038.367,-38.574,-31.250,-35.156,-20.020,0.000
1759631038.371,31.250,-28.320,-41.992,0.488,0.000
1759631038.374,2.441,-31.738,-41.504,-6.348,0.000
1759631038.378,-58.105,-34.668,-38.574,-23.926,0.000
1759631038.382,-46.387,-35.156,-42.480,-24.902,0.000
1759631038.386,20.020,-33.691,-44.434,-8.301,0.000
1759631038.390,22.949,-33.691,-43.457,-12.207,0.000
1759631038.394,-51.758,-33.203,-42.480,-36.621,0.000
1759631038.398,-51.758,-30.762,-41.504,-35.645,0.000
1759631038.402,12.207,-34.668,-42.480,-19.531,0.000
1759631038.406,31.250,-38.086,-44.922,-19.531,0.000
1759631038.410,-34.180,-35.156,-43.457,-39.551,0.000
1759631038.413,-67.383,-35.156,-46.875,-54.199,0.000
1759631038.418,-23.926,-41.016,-49.316,-42.969,0.000
1759631038.421,30.273,-40.039,-45.410,-31.250,0.000
1759631038.425,-16.113,-38.574,-40.527,-50.293,0.000
1759631038.429,-73.730,-41.992,-37.109,-58.594,0.000
1759631038.433,-38.574,-39.062,-34.668,-37.598,0.000
1759631038.437,30.273,-36.621,-37.598,-13.672,0.000
1759631038.441,0.000,-45.410,-40.527,-30.762,0.000
1759631038.445,-66.895,-46.875,-38.574,-46.875,0.000
1759631038.449,-65.430,-46.387,-43.945,-52.246,0.000
1759631038.453,-2.930,-47.363,-46.875,-41.992,0.000
1759631038.457,11.719,-47.363,-41.016,-38.574,0.000
1759631038.460,-57.617,-48.828,-40.039,-60.059,0.000
1759631038.464,-76.660,-46.387,-45.898,-62.012,0.000
1759631038.468,-20.508,-46.875,-48.828,-45.898,0.000
1759631038.472,17.578,-48.340,-49.316,-37.109,0.000
1759631038.476,-40.039,-42.480,-46.387,-58.105,0.000
1759631038.480,-84.473,-36.133,-44.434,-60.547,0.000
1759631038.484,-41.992,-36.621,-45.410,-41.504,0.000
1759631038.488,13.184,-38.574,-46.387,-23.926,0.000
1759631038.492,-33.691,-39.551,-44.922,-45.410,0.000
1759631038.496,-94.727,-43.945,-42.969,-68.848,0.000
1759631038.499,-67.383,-43.945,-43.945,-53.711,0.000
1759631038.503,14.648,-38.086,-40.527,-13.184,0.000
1759631038.507,1.953,-37.109,-37.598,-18.555,0.000
1759631038.511,-77.148,-46.387,-40.039,-58.594,0.000
1759631038.515,-73.242,-46.875,-39.062,-56.641,0.000
1759631038.519,-13.184,-38.574,-40.527,-41.992,0.000
1759631038.523,4.395,-32.227,-22.949,-37.598,0.000
1759631038.527,-53.711,-6.836,-10.742,-51.758,0.000
1759631038.531,-80.566,-4.883,-26.367,-65.918,0.000
1759631038.535,-31.250,-38.574,-32.227,-45.898,0.000
1759631038.539,-6.348,-30.762,-17.090,-42.480,0.000
1759631038.542,-79.102,-4.883,9.277,-78.125,0.000
1759631038.546,-130.859,6.348,8.301,-98.145,0.000
1759631038.550,-112.305,-13.672,-4.883,-113.281,0.000
1759631038.554,-86.426,-21.484,-3.906,-129.883,0.000
1759631038.558,-155.762,-13.184,5.859,-169.922,0.000
1759631038.562,-240.723,-3.906,19.043,-211.426,0.000
1759631038.566,-237.793,19.531,51.270,-216.797,0.000
1759631038.570,-221.191,31.738,54.688,-235.840,0.000
1759631038.574,-270.020,38.086,40.039,-282.715,0.000
1759631038.578,-345.703,33.203,48.828,-320.312,0.000
1759631038.582,-375.488,40.527,51.270,-342.285,0.000
1759631038.585,-341.309,68.359,39.551,-352.539,0.000
1759631038.589,-333.496,75.195,22.461,-372.070,0.000
1759631038.593,-380.371,75.195,35.156,-370.605,0.000
1759631038.597,-403.809,62.988,39.062,-376.953,0.000
1759631038.601,-351.562,50.781,21.484,-366.211,0.000
1759631038.605,-273.438,57.617,20.020,-320.801,0.000
1759631038.609,-304.688,55.664,32.715,-319.336,0.000
1759631038.613,-351.562,38.574,35.156,-322.754,0.000
1759631038.617,-306.641,34.668,24.414,-292.969,0.000
1759631038.621,-220.703,39.062,19.043,-253.906,0.000
1759631038.625,-223.633,28.809,17.578,-244.141,0.000
1759631038.628,-262.207,22.461,16.602,-233.887,0.000
1759631038.632,-227.051,19.531,18.555,-204.102,0.000
1759631038.636,-143.066,12.695,14.648,-163.574,0.000
1759631038.640,-127.930,6.348,10.254,-151.855,0.000
1759631038.644,-174.805,-4.395,5.371,-157.227,0.000
1759631038.648,-155.762,-11.230,-2.930,-132.324,0.000
1759631038.652,-70.801,-20.508,-12.207,-78.125,0.000
1759631038.656,-19.043,-33.691,-18.066,-39.062,0.000
1759631038.660,-60.059,-35.645,-24.902,-53.711,0.000
1759631038.664,-59.570,-40.527,-30.762,-36.621,0.000
1759631038.668,7.812,-50.293,-30.762,10.742,0.000
1759631038.671,56.641,-57.617,-41.504,20.508,0.000
1759631038.675,12.207,-69.336,-49.805,4.395,0.000
1759631038.679,-25.879,-79.102,-48.828,10.254,0.000
1759631038.683,16.602,-83.496,-51.758,39.062,0.000
1759631038.687,81.543,-86.914,-60.547,55.176,0.000
1759631038.691,66.895,-89.355,-65.430,38.574,0.000
1759631038.695,23.926,-86.914,-62.988,33.691,0.000
1759631038.699,34.668,-87.402,-62.500,52.734,0.000
1759631038.703,101.562,-87.402,-64.941,86.426,0.000
1759631038.707,117.676,-86.914,-64.453,92.285,0.000
1759631038.710,56.152,-88.867,-64.941,78.125,0.000
1759631038.714,51.758,-89.355,-65.918,79.102,0.000
1759631038.718,113.281,-86.914,-68.848,84.961,0.000
1759631038.722,148.438,-85.449,-71.777,89.355,0.000
1759631038.726,97.656,-82.520,-68.359,68.848,0.000
1759631038.730,49.805,-85.938,-67.871,59.082,0.000
1759631038.734,63.477,-93.262,-74.219,66.895,0.000
1759631038.738,116.699,-87.891,-69.336,78.125,0.000
1759631038.742,86.914,-85.449,-59.082,60.547,0.000
1759631038.746,37.109,-83.496,-60.547,47.852,0.000
1759631038.750,59.082,-78.125,-66.406,52.734,0.000
1759631038.753,119.629,-81.055,-67.383,62.500,0.000
1759631038.757,97.656,-83.008,-65.918,55.176,0.000
1759631038.761,27.344,-85.449,-66.895,34.668,0.000
1759631038.765,26.367,-82.031,-67.871,38.574,0.000
1759631038.769,86.914,-72.754,-68.359,55.176,0.000
1759631038.773,104.004,-65.918,-61.523,72.266,0.000
1759631038.777,38.086,-66.406,-60.547,56.641,0.000
1759631038.781,9.277,-73.730,-62.012,29.297,0.000
1759631038.785,58.105,-73.242,-62.500,42.969,0.000
1759631038.789,104.004,-67.383,-63.477,54.688,0.000
1759631038.793,44.922,-64.453,-63.477,29.785,0.000
1759631038.796,-10.254,-66.895,-63.477,9.766,0.000
1759631038.800,31.250,-66.406,-58.105,20.020,0.000
1759631038.804,93.750,-65.430,-54.199,41.504,0.000
1759631038.808,53.711,-62.988,-52.734,21.484,0.000
1759631038.812,-8.301,-65.918,-51.758,-0.977,0.000
1759631038.816,6.348,-69.824,-52.246,8.789,0.000
1759631038.820,67.871,-67.383,-55.176,41.016,0.000
1759631038.824,55.664,-64.453,-60.059,17.578,0.000
1759631038.828,-7.812,-62.012,-57.129,-15.137,0.000
1759631038.832,-3.906,-57.617,-56.641,-2.930,0.000
1759631038.835,50.293,-58.105,-61.523,13.184,0.000
1759631038.839,57.617,-58.105,-60.059,15.137,0.000
1759631038.843,-4.883,-54.199,-60.547,-9.766,0.000
1759631038.847,-25.391,-54.199,-58.105,-16.602,0.000
1759631038.851,20.020,-53.223,-60.059,0.977,0.000
1759631038.855,59.082,-51.270,-63.965,12.207,0.000
1759631038.859,10.254,-52.246,-58.594,-7.324,0.000
1759631038.863,-32.227,-55.664,-57.617,-23.438,0.000
1759631038.867,-8.301,-57.617,-60.059,-20.020,0.000
1759631038.871,45.410,-57.129,-60.059,-1.953,0.000
1759631038.874,22.461,-50.781,-55.176,-15.625,0.000
1759631038.878,-34.668,-51.270,-53.711,-26.855,0.000
1759631038.882,-36.133,-59.570,-59.570,-20.020,0.000
1759631038.886,15.137,-60.547,-66.895,-20.020,0.000
1759631038.890,24.414,-59.570,-63.477,-30.762,0.000
1759631038.894,-38.574,-60.547,-57.129,-49.805,0.000
1759631038.898,-54.688,-58.105,-55.664,-54.688,0.000
1759631038.902,7.324,-54.199,-52.246,-38.574,0.000
1759631038.906,47.852,-52.734,-47.852,-28.809,0.000
1759631038.910,-13.672,-55.176,-43.457,-43.457,0.000
1759631038.914,-48.828,-59.082,-47.363,-55.664,0.000
1759631038.917,-0.977,-58.594,-50.293,-47.363,0.000
1759631038.921,43.945,-54.688,-47.852,-27.832,0.000
1759631038.925,-6.348,-54.199,-44.922,-44.922,0.000
1759631038.929,-56.152,-57.617,-43.945,-60.059,0.000
1759631038.933,-26.367,-59.082,-43.945,-45.410,0.000
1759631038.937,36.621,-54.688,-45.898,-22.461,0.000
1759631038.941,7.324,-53.711,-46.387,-40.039,0.000
1759631038.945,-62.012,-56.152,-48.828,-67.871,0.000
1759631038.949,-51.758,-60.059,-53.711,-64.941,0.000
1759631038.953,20.020,-60.547,-52.734,-33.203,0.000
1759631038.957,28.809,-56.641,-52.734,-33.203,0.000
1759631038.960,-43.945,-53.711,-53.711,-68.359,0.000
1759631038.964,-61.035,-52.246,-50.781,-68.359,0.000
1759631038.968,0.000,-52.246,-52.734,-41.992,0.000
1759631038.972,35.645,-48.828,-55.664,-37.109,0.000
1759631038.976,-19.531,-44.922,-48.340,-61.523,0.000
1759631038.980,-50.781,-46.875,-45.410,-68.359,0.000
1759631038.984,-0.977,-46.387,-50.293,-48.828,0.000
1759631038.988,59.082,-44.922,-47.363,-26.855,0.000
1759631038.992,0.488,-48.340,-38.574,-56.641,0.000
1759631038.996,-63.477,-50.293,-29.297,-78.613,0.000
1759631039.000,-38.086,-52.246,-26.367,-68.848,0.000
1759631039.003,22.949,-53.711,-32.227,-52.246,0.000
1759631039.007,4.395,-49.316,-38.086,-62.012,0.000
1759631039.011,-55.176,-49.805,-38.086,-69.824,0.000
1759631039.015,-38.574,-52.734,-39.062,-55.176,0.000
1759631039.019,19.531,-54.199,-48.828,-45.898,0.000
1759631039.023,23.438,-50.781,-46.875,-47.363,0.000
1759631039.027,-34.180,-44.922,-39.551,-60.059,0.000
1759631039.031,-48.340,-48.828,-44.434,-60.059,0.000
1759631039.035,3.906,-50.293,-45.898,-40.527,0.000
1759631039.039,41.992,-45.898,-46.387,-30.762,0.000
1759631039.043,-16.113,-48.340,-48.828,-60.059,0.000
1759631039.046,-57.129,-47.363,-46.387,-73.730,0.000
1759631039.050,-16.602,-43.945,-44.434,-55.664,0.000
1759631039.054,43.457,-42.969,-45.410,-41.992,0.000
1759631039.058,11.719,-42.969,-36.621,-49.805,0.000
1759631039.062,-49.316,-46.875,-33.691,-54.199,0.000
1759631039.066,-38.086,-49.316,-39.062,-59.082,0.000
1759631039.070,25.879,-49.805,-39.062,-40.527,0.000
1759631039.074,6.836,-47.852,-35.156,-46.387,0.000
1759631039.078,-63.965,-45.898,-35.645,-73.242,0.000
1759631039.082,-61.523,-46.387,-40.527,-70.801,0.000
1759631039.086,9.766,-45.410,-41.016,-38.086,0.000
1759631039.089,36.621,-40.039,-41.504,-28.809,0.000
1759631039.093,-28.320,-39.062,-39.062,-50.781,0.000
1759631039.097,-48.828,-41.016,-38.086,-57.129,0.000
1759631039.101,-1.465,-41.992,-41.016,-50.293,0.000
1759631039.105,33.203,-44.922,-41.504,-32.227,0.000
1759631039.109,-26.855,-44.434,-41.016,-63.477,0.000
1759631039.113,-70.801,-41.504,-36.621,-81.055,0.000
1759631039.117,-27.832,-42.480,-34.180,-55.176,0.000
1759631039.121,27.832,-45.898,-40.039,-41.992,0.000
1759631039.125,-5.859,-47.852,-42.480,-61.523,0.000
1759631039.129,-61.035,-47.363,-39.062,-76.172,0.000
1759631039.132,-45.898,-47.852,-35.645,-55.664,0.000
1759631039.136,20.508,-43.945,-32.715,-33.691,0.000
1759631039.140,22.461,-39.062,-28.809,-44.922,0.000
1759631039.144,-44.434,-41.992,-28.809,-70.312,0.000
1759631039.148,-57.129,-44.434,-35.156,-72.754,0.000
1759631039.152,0.977,-44.434,-42.969,-54.199,0.000
1759631039.156,32.715,-38.574,-42.480,-41.992,0.000
1759631039.160,-31.250,-35.156,-40.039,-63.477,0.000
1759631039.164,-56.641,-41.016,-41.504,-64.453,0.000
1759631039.168,-7.812,-39.062,-43.945,-43.945,0.000
1759631039.171,29.297,-35.645,-48.828,-40.527,0.000
1759631039.175,-18.066,-37.109,-43.457,-61.523,0.000
1759631039.179,-63.965,-41.992,-44.434,-76.172,0.000
1759631039.183,-34.668,-47.363,-45.898,-65.430,0.000
1759631039.187,28.809,-43.457,-44.922,-45.898,0.000
1759631039.191,2.930,-41.504,-46.875,-61.035,0.000
1759631039.195,-70.312,-44.922,-42.480,-77.148,0.000
1759631039.199,-62.012,-42.969,-44.922,-72.754,0.000
1759631039.203,6.836,-44.434,-51.758,-59.082,0.000
1759631039.207,3.418,-44.434,-50.781,-58.594,0.000
1759631039.210,-62.500,-41.992,-49.316,-79.590,0.000
1759631039.214,-69.336,-45.898,-47.852,-80.078,0.000
1759631039.218,-7.812,-46.875,-43.945,-55.176,0.000
1759631039.222,20.508,-39.551,-36.621,-39.551,0.000
1759631039.226,-49.805,-41.016,-35.156,-56.641,0.000
1759631039.230,-83.008,-45.410,-38.574,-62.988,0.000
1759631039.234,-36.621,-46.875,-38.086,-48.340,0.000
1759631039.238,27.344,-43.457,-35.645,-27.832,0.000
1759631039.242,-15.137,-41.504,-37.598,-43.945,0.000
1759631039.246,-75.684,-48.340,-38.086,-70.801,0.000
1759631039.250,-45.898,-43.457,-33.691,-55.176,0.000
1759631039.253,10.742,-38.574,-34.668,-30.273,0.000
1759631039.257,-7.812,-42.480,-33.203,-40.527,0.000
1759631039.261,-64.941,-44.434,-34.180,-54.688,0.000
1759631039.265,-64.941,-41.016,-38.574,-49.805,0.000
1759631039.269,-0.977,-37.598,-41.016,-32.227,0.000
1759631039.273,20.996,-34.180,-37.598,-29.297,0.000
1759631039.277,-45.410,-36.133,-30.273,-50.781,0.000
1759631039.281,-72.754,-43.945,-32.715,-54.199,0.000
1759631039.285,-19.043,-49.805,-39.062,-33.203,0.000
1759631039.289,18.066,-50.781,-42.480,-19.531,0.000
1759631039.292,-40.039,-42.969,-41.992,-52.246,0.000
1759631039.296,-81.543,-40.527,-40.527,-68.848,0.000
1759631039.300,-43.457,-44.922,-42.480,-46.875,0.000
1759631039.304,11.230,-45.898,-44.434,-35.645,0.000
1759631039.308,-24.902,-42.480,-36.621,-52.246,0.000
1759631039.312,-71.777,-37.109,-30.762,-55.664,0.000
1759631039.316,-49.316,-35.645,-35.156,-40.527,0.000
1759631039.320,18.066,-38.574,-39.062,-20.508,0.000
1759631039.324,3.418,-36.621,-38.086,-31.738,0.000
1759631039.328,-66.895,-36.133,-31.738,-41.992,0.000
1759631039.332,-69.336,-35.645,-34.180,-35.645,0.000
1759631039.335,-3.418,-35.645,-39.062,-22.949,0.000
1759631039.339,19.531,-35.156,-29.785,-6.836,0.000
1759631039.343,-49.805,-30.762,-28.809,-28.809,0.000
1759631039.347,-75.195,-34.180,-32.715,-39.551,0.000
1759631039.351,-20.020,-36.621,-29.785,-18.555,0.000
1759631039.355,17.578,-33.691,-29.297,-8.789,0.000
1759631039.359,-43.457,-37.109,-27.344,-33.203,0.000
1759631039.363,-83.008,-39.062,-29.785,-51.270,0.000
1759631039.367,-44.922,-43.945,-33.203,-46.875,0.000
1759631039.371,11.719,-47.363,-30.273,-22.949,0.000
1759631039.375,-20.508,-49.316,-38.086,-33.203,0.000
1759631039.378,-75.684,-51.270,-44.922,-57.129,0.000
1759631039.382,-64.941,-43.457,-44.434,-45.898,0.000
1759631039.386,-1.953,-39.551,-47.852,-19.531,0.000
1759631039.390,-4.395,-38.574,-43.457,-26.855,0.000
1759631039.394,-72.754,-40.527,-41.992,-59.570,0.000
1759631039.398,-76.660,-41.016,-43.945,-58.594,0.000
1759631039.402,-13.672,-47.363,-47.363,-31.250,0.000
1759631039.406,11.719,-48.828,-52.734,-22.461,0.000
1759631039.410,-55.664,-42.480,-46.875,-46.387,0.000
1759631039.414,-80.078,-44.922,-36.133,-51.758,0.000
1759631039.418,-25.879,-46.387,-37.598,-36.621,0.000
1759631039.421,21.484,-46.387,-47.852,-31.738,0.000
1759631039.425,-35.645,-49.805,-48.340,-62.012,0.000
1759631039.429,-88.867,-47.852,-46.387,-77.637,0.000
1759631039.433,-41.992,-46.387,-41.992,-46.387,0.000
1759631039.437,16.602,-49.805,-43.457,-28.809,0.000
1759631039.441,-16.602,-44.434,-48.828,-61.035,0.000
1759631039.445,-62.988,-40.039,-40.039,-77.637,0.000
1759631039.449,-56.152,-39.551,-40.527,-74.219,0.000
1759631039.453,7.324,-39.551,-46.387,-53.711,0.000
1759631039.457,9.766,-36.133,-41.992,-57.129,0.000
1759631039.461,-57.129,-35.645,-39.551,-79.102,0.000
1759631039.464,-68.359,-40.527,-43.945,-76.660,0.000
1759631039.468,-10.254,-34.668,-41.016,-51.758,0.000
1759631039.472,20.996,-31.738,-41.016,-50.293,0.000
1759631039.476,-38.574,-39.062,-41.504,-80.078,0.000
1759631039.480,-78.125,-40.527,-36.621,-81.055,0.000
1759631039.484,-39.551,-37.109,-37.109,-64.453,0.000
1759631039.488,15.137,-36.621,-41.504,-47.363,0.000
1759631039.492,-18.555,-32.227,-38.574,-52.734,0.000
1759631039.496,-62.988,-32.715,-34.180,-58.105,0.000
1759631039.500,-42.480,-36.621,-38.086,-49.805,0.000
1759631039.504,22.949,-32.227,-36.133,-25.879,0.000
1759631039.507,9.766,-29.785,-28.320,-34.180,0.000
1759631039.511,-57.617,-30.273,-22.461,-57.129,0.000
1759631039.515,-62.500,-36.133,-27.344,-53.223,0.000
1759631039.519,7.324,-37.598,-37.109,-40.039,0.000
1759631039.523,29.785,-31.738,-31.738,-31.738,0.000
1759631039.527,-37.598,-33.203,-26.855,-44.922,0.000
1759631039.531,-60.547,-37.109,-31.250,-60.059,0.000
1759631039.535,0.488,-36.133,-28.320,-37.109,0.000
1759631039.539,39.062,-28.320,-28.320,-26.855,0.000
1759631039.543,-26.367,-30.273,-26.367,-50.293,0.000
1759631039.547,-55.664,-32.715,-20.996,-53.711,0.000
1759631039.550,-14.160,-33.691,-25.391,-41.016,0.000
1759631039.554,26.367,-39.062,-31.738,-29.297,0.000
1759631039.558,-20.996,-37.109,-30.273,-52.246,0.000
1759631039.562,-71.777,-39.062,-30.273,-71.289,0.000
1759631039.566,-50.293,-43.457,-34.180,-53.223,0.000
1759631039.570,9.277,-41.016,-36.133,-21.484,0.000
1759631039.574,-9.277,-37.109,-36.133,-41.992,0.000
1759631039.578,-76.172,-35.645,-34.668,-73.242,0.000
1759631039.582,-65.430,-36.621,-33.691,-61.035,0.000
1759631039.586,-3.418,-41.504,-38.086,-42.969,0.000
1759631039.590,5.859,-42.969,-40.527,-47.363,0.000
1759631039.593,-56.152,-45.410,-37.109,-72.754,0.000
1759631039.597,-79.102,-46.875,-37.109,-73.242,0.000
1759631039.601,-35.156,-46.875,-40.039,-48.340,0.000
1759631039.605,15.137,-46.387,-38.086,-34.180,0.000
1759631039.609,-29.785,-47.852,-32.227,-54.688,0.000
1759631039.613,-69.824,-45.410,-35.156,-62.500,0.000
1759631039.617,-30.762,-40.527,-35.645,-44.922,0.000
1759631039.621,18.555,-46.387,-37.109,-26.855,0.000
1759631039.625,-17.090,-45.410,-40.039,-50.293,0.000
1759631039.628,-66.895,-43.945,-36.133,-57.617,0.000
1759631039.632,-57.617,-50.781,-38.574,-45.898,0.000
1759631039.636,-0.977,-51.270,-45.410,-38.086,0.000
1759631039.640,7.812,-43.457,-35.156,-39.551,0.000
1759631039.644,-56.641,-43.945,-29.297,-57.129,0.000
1759631039.648,-75.684,-43.945,-37.598,-58.594,0.000
1759631039.652,-20.020,-39.551,-41.992,-47.363,0.000
1759631039.656,0.000,-45.410,-38.086,-43.457,0.000
1759631039.660,-60.059,-50.781,-37.598,-58.594,0.000
1759631039.664,-79.590,-47.852,-41.992,-69.824,0.000
1759631039.668,-34.668,-44.434,-46.875,-57.129,0.000
1759631039.672,13.184,-40.039,-47.852,-35.645,0.000
1759631039.675,-31.738,-37.598,-41.992,-52.734,0.000
1759631039.679,-74.219,-40.527,-39.062,-64.453,0.000
1759631039.683,-37.598,-40.039,-37.109,-47.363,0.000
1759631039.687,22.949,-40.527,-38.574,-20.996,0.000
1759631039.691,-1.953,-41.992,-40.527,-35.645,0.000
1759631039.695,-70.312,-41.504,-39.062,-61.035,0.000
1759631039.699,-67.871,-44.434,-35.156,-63.477,0.000
1759631039.703,-2.441,-44.434,-30.273,-40.039,0.000
1759631039.707,-3.418,-42.969,-25.879,-38.574,0.000
1759631039.711,-70.801,-45.898,-29.297,-63.477,0.000
1759631039.714,-76.660,-46.875,-32.715,-65.918,0.000
1759631039.718,-10.254,-49.805,-31.738,-44.434,0.000
1759631039.722,20.508,-46.875,-33.203,-33.203,0.000
1759631039.726,-52.734,-41.016,-37.109,-70.312,0.000
1759631039.730,-82.520,-41.992,-37.109,-84.961,0.000
1759631039.734,-29.297,-45.898,-35.645,-65.918,0.000
1759631039.738,18.555,-45.898,-36.621,-56.641,0.000
1759631039.742,-30.762,-43.945,-38.574,-80.566,0.000
1759631039.746,-73.730,-43.945,-36.133,-76.172,0.000
1759631039.750,-44.434,-46.875,-32.227,-52.734,0.000
1759631039.754,13.184,-46.875,-34.668,-42.480,0.000
1759631039.757,0.488,-38.086,-35.645,-54.199,0.000
1759631039.761,-60.547,-39.551,-32.227,-66.406,0.000
1759631039.765,-66.895,-49.316,-32.715,-54.688,0.000
1759631039.769,-12.207,-46.875,-43.945,-32.715,0.000
1759631039.773,5.371,-42.480,-47.852,-32.715,0.000
1759631039.777,-52.734,-44.922,-39.551,-53.711,0.000
1759631039.781,-73.730,-40.039,-38.086,-50.293,0.000
1759631039.785,-20.020,-38.086,-41.992,-29.297,0.000
1759631039.789,20.996,-40.527,-38.086,-21.484,0.000
1759631039.793,-32.715,-36.621,-33.203,-39.062,0.000
1759631039.797,-68.848,-39.551,-32.227,-41.992,0.000
1759631039.800,-27.344,-44.922,-36.133,-31.738,0.000
1759631039.804,15.137,-42.969,-40.527,-24.414,0.000
1759631039.808,-22.461,-42.969,-33.691,-31.738,0.000
1759631039.812,-70.312,-45.410,-31.738,-39.551,0.000
1759631039.816,-59.082,-45.898,-46.875,-49.805,0.000
1759631039.820,13.184,-43.945,-47.852,-33.203,0.000
1759631039.824,-2.930,-41.504,-38.574,-25.879,0.000
1759631039.828,-78.613,-41.016,-39.062,-42.480,0.000
1759631039.832,-63.965,-37.598,-35.645,-42.480,0.000
1759631039.836,3.906,-39.062,-37.598,-22.461,0.000
1759631039.840,16.113,-41.504,-40.039,-24.414,0.000
1759631039.843,-45.898,-38.086,-36.621,-52.246,0.000
1759631039.847,-70.801,-38.574,-39.062,-55.176,0.000
1759631039.851,-22.461,-44.434,-42.480,-37.109,0.000
1759631039.855,20.508,-47.852,-44.922,-26.367,0.000
1759631039.859,-36.133,-40.039,-43.457,-50.293,0.000
1759631039.863,-78.613,-37.598,-39.551,-61.035,0.000
1759631039.867,-30.273,-39.551,-39.062,-29.785,0.000
1759631039.871,30.762,-40.527,-38.574,-1.465,0.000
1759631039.875,-14.648,-40.527,-40.527,-27.344,0.000
1759631039.879,-76.660,-36.133,-43.945,-52.734,0.000
1759631039.883,-48.340,-36.133,-47.363,-42.480,0.000
1759631039.886,0.977,-36.621,-46.387,-22.949,0.000
1759631039.890,-18.555,-32.715,-41.992,-34.180,0.000
1759631039.894,-65.430,-37.109,-40.039,-55.664,0.000
1759631039.898,-61.035,-43.457,-38.574,-46.875,0.000
1759631039.902,-7.324,-43.457,-47.363,-25.391,0.000
1759631039.906,6.348,-41.504,-54.199,-34.180,0.000
1759631039.910,-59.082,-39.551,-49.805,-56.152,0.000
1759631039.914,-83.984,-40.527,-44.434,-56.152,0.000
1759631039.918,-31.250,-42.969,-41.992,-35.645,0.000
1759631039.922,16.113,-40.527,-44.922,-20.508,0.000
1759631039.926,-28.320,-34.180,-39.551,-41.504,0.000
1759631039.929,-68.848,-34.180,-37.109,-57.129,0.000
1759631039.933,-39.551,-41.992,-36.621,-42.969,0.000
1759631039.937,12.207,-45.898,-32.715,-19.043,0.000
1759631039.941,-21.973,-47.852,-37.109,-38.574,0.000
1759631039.945,-81.055,-52.246,-39.062,-58.594,0.000
1759631039.949,-60.547,-55.176,-40.527,-46.387,0.000
1759631039.953,11.230,-50.781,-42.969,-17.578,0.000
1759631039.957,5.859,-47.363,-37.598,-16.113,0.000
1759631039.961,-77.637,-48.340,-39.062,-39.062,0.000
1759631039.965,-94.727,-48.340,-40.527,-46.387,0.000
1759631039.968,-23.438,-48.340,-36.133,-20.020,0.000
1759631039.972,19.043,-47.363,-32.715,-2.930,0.000
1759631039.976,-39.062,-40.039,-33.203,-30.762,0.000
1759631039.980,-68.359,-34.668,-41.504,-43.945,0.000
1759631039.984,-17.578,-38.086,-40.039,-29.785,0.000
1759631039.988,38.574,-37.598,-38.086,-8.301,0.000
1759631039.992,-6.836,-37.598,-39.062,-22.949,0.000
1759631039.996,-64.941,-43.457,-37.109,-43.457,0.000
1759631040.000,-34.180,-42.969,-38.086,-33.203,0.000
1759631040.004,32.715,-36.133,-37.598,-13.184,0.000
1759631040.007,1.953,-35.156,-36.133,-25.391,0.000
1759631040.011,-64.941,-40.527,-38.574,-48.340,0.000
1759631040.015,-57.129,-42.969,-40.527,-44.922,0.000
1759631040.019,2.930,-45.410,-38.574,-21.484,0.000
1759631040.023,2.441,-46.387,-36.621,-30.762,0.000
1759631040.027,-63.477,-45.898,-37.109,-52.734,0.000
1759631040.031,-75.195,-46.387,-40.527,-41.992,0.000
1759631040.035,-10.742,-47.363,-40.527,-12.207,0.000
1759631040.039,19.043,-43.457,-40.527,-4.883,0.000
1759631040.043,-47.363,-34.180,-40.527,-39.062,0.000
1759631040.046,-77.148,-39.062,-38.574,-49.805,0.000
1759631040.050,-28.320,-38.086,-37.109,-26.855,0.000
1759631040.054,25.879,-30.762,-35.156,-2.930,0.000
1759631040.058,-19.043,-30.762,-33.203,-19.531,0.000
1759631040.062,-68.848,-36.133,-37.598,-30.762,0.000
1759631040.066,-41.016,-40.527,-41.016,-15.625,0.000
1759631040.070,23.438,-40.039,-39.551,-3.418,0.000
1759631040.074,0.488,-39.551,-37.598,-16.113,0.000
1759631040.078,-71.289,-41.504,-39.062,-24.902,0.000
1759631040.082,-65.918,-41.016,-41.016,-14.648,0.000
1759631040.086,-7.324,-41.992,-43.457,-8.301,0.000
1759631040.089,0.977,-42.480,-42.480,-8.301,0.000
1759631040.093,-59.570,-43.457,-38.086,-17.578,0.000
1759631040.097,-80.078,-45.898,-37.598,-23.438,0.000
1759631040.101,-32.715,-47.852,-39.551,-12.695,0.000
1759631040.105,8.789,-43.457,-39.062,-1.953,0.000
1759631040.109,-45.898,-40.527,-39.062,-25.391,0.000
1759631040.113,-89.355,-42.969,-42.969,-40.039,0.000
1759631040.117,-50.293,-46.387,-44.434,-28.320,0.000
1759631040.121,17.090,-45.410,-44.434,-11.230,0.000
1759631040.125,-16.113,-39.551,-41.016,-27.344,0.000
1759631040.129,-74.219,-42.969,-39.062,-38.574,0.000
1759631040.132,-60.059,-43.945,-35.645,-21.973,0.000
1759631040.136,3.906,-38.086,-37.109,2.930,0.000
1759631040.140,-5.859,-41.016,-40.039,2.930,0.000
1759631040.144,-73.242,-44.434,-40.039,-34.180,0.000
1759631040.148,-73.242,-43.457,-38.574,-50.293,0.000
1759631040.152,-14.160,-48.340,-39.062,-28.809,0.000
1759631040.156,7.324,-45.410,-37.598,-17.090,0.000
1759631040.160,-57.617,-38.574,-37.109,-36.621,0.000
1759631040.164,-80.078,-39.551,-40.039,-42.969,0.000
1759631040.168,-21.484,-42.969,-41.504,-18.066,0.000
1759631040.172,25.391,-44.434,-41.016,-1.953,0.000
1759631040.175,-27.344,-39.062,-39.062,-19.043,0.000
1759631040.179,-74.707,-39.551,-37.109,-25.391,0.000
1759631040.183,-33.691,-41.992,-35.156,-1.953,0.000
1759631040.187,23.438,-35.156,-36.621,11.719,0.000
1759631040.191,-23.926,-33.203,-38.574,-21.973,0.000
1759631040.195,-81.543,-38.086,-37.598,-42.480,0.000
1759631040.199,-60.059,-35.156,-37.109,-31.250,0.000
1759631040.203,5.859,-30.273,-41.992,-14.160,0.000
1759631040.207,0.977,-31.250,-41.992,-24.414,0.000
1759631040.211,-62.500,-33.203,-38.574,-35.645,0.000
1759631040.215,-66.895,-30.762,-38.086,-24.902,0.000
1759631040.218,-12.207,-37.109,-43.457,-15.137,0.000
1759631040.222,7.812,-41.992,-45.898,-26.367,0.000
1759631040.226,-63.477,-39.551,-40.527,-54.688,0.000
1759631040.230,-82.520,-38.574,-40.039,-56.152,0.000
1759631040.234,-29.297,-38.574,-39.062,-43.457,0.000
1759631040.238,12.207,-35.156,-40.039,-33.203,0.000
1759631040.242,-32.227,-30.762,-38.086,-45.410,0.000
1759631040.246,-76.660,-33.203,-32.715,-49.316,0.000
1759631040.250,-48.828,-38.086,-35.645,-36.133,0.000
1759631040.254,14.648,-34.668,-39.551,-20.508,0.000
1759631040.258,5.859,-29.785,-40.527,-25.391,0.000
1759631040.261,-59.570,-29.297,-39.551,-39.062,0.000
1759631040.265,-63.965,-33.691,-33.691,-33.691,0.000
1759631040.269,0.977,-34.668,-31.738,-21.484,0.000
1759631040.273,12.207,-32.227,-29.297,-22.461,0.000
1759631040.277,-58.594,-35.156,-31.738,-45.410,0.000
1759631040.281,-83.496,-38.574,-39.062,-61.523,0.000
1759631040.285,-25.391,-37.109,-39.551,-43.945,0.000
1759631040.289,6.348,-38.574,-39.551,-40.039,0.000
1759631040.293,-54.688,-41.504,-37.109,-57.617,0.000
1759631040.297,-84.473,-40.039,-35.645,-61.523,0.000
1759631040.301,-33.203,-39.551,-39.062,-43.945,0.000
1759631040.304,21.973,-36.133,-38.086,-20.508,0.000
1759631040.308,-23.926,-37.109,-36.621,-42.969,0.000
1759631040.312,-78.613,-40.039,-41.016,-55.176,0.000
1759631040.316,-53.223,-43.457,-44.434,-46.875,0.000
1759631040.320,11.230,-47.852,-49.316,-38.574,0.000
1759631040.324,-7.324,-45.898,-50.293,-52.246,0.000
1759631040.328,-71.777,-46.387,-45.898,-71.289,0.000
1759631040.332,-64.453,-48.340,-45.410,-61.523,0.000
1759631040.336,1.465,-45.410,-50.293,-36.621,0.000
1759631040.340,12.695,-41.504,-53.711,-36.621,0.000
1759631040.343,-49.805,-41.016,-47.852,-60.547,0.000
1759631040.347,-71.289,-47.852,-43.457,-61.523,0.000
1759631040.351,-18.555,-55.176,-43.457,-39.062,0.000
1759631040.355,20.508,-49.805,-41.992,-32.715,0.000
1759631040.359,-40.527,-47.363,-38.086,-62.988,0.000
1759631040.363,-76.172,-50.781,-34.668,-65.430,0.000
1759631040.367,-42.969,-54.199,-41.016,-49.316,0.000
1759631040.371,4.883,-52.734,-48.828,-45.898,0.000
1759631040.375,-19.043,-46.387,-45.410,-60.059,0.000
1759631040.379,-66.895,-45.410,-44.922,-72.266,0.000
1759631040.382,-52.246,-45.410,-47.852,-65.430,0.000
1759631040.386,15.625,-41.504,-48.340,-42.969,0.000
1759631040.390,5.859,-37.598,-42.969,-41.504,0.000
1759631040.394,-62.012,-38.574,-44.922,-54.199,0.000
1759631040.398,-71.289,-41.504,-50.293,-57.617,0.000
1759631040.402,-20.508,-45.898,-50.781,-46.387,0.000
1759631040.406,4.395,-43.945,-50.293,-38.574,0.000
1759631040.410,-53.711,-47.852,-48.340,-55.664,0.000
1759631040.414,-80.566,-46.875,-50.293,-64.453,0.000
1759631040.418,-29.297,-41.504,-52.734,-49.805,0.000
1759631040.421,12.695,-42.969,-53.711,-36.621,0.000
1759631040.425,-38.574,-43.457,-52.734,-55.176,0.000
1759631040.429,-82.031,-40.527,-49.805,-63.477,0.000
1759631040.433,-50.781,-38.574,-50.781,-57.129,0.000
1759631040.437,10.742,-41.504,-49.316,-35.645,0.000
1759631040.441,-13.184,-38.086,-42.969,-39.551,0.000
1759631040.445,-72.266,-32.715,-41.016,-67.871,0.000
1759631040.449,-64.453,-33.203,-37.109,-64.453,0.000
1759631040.453,5.371,-34.180,-30.273,-27.832,0.000
1759631040.457,-4.883,-35.156,-34.180,-41.992,0.000
1759631040.461,-89.844,-41.016,-28.320,-85.938,0.000
1759631040.464,-84.473,-14.160,-3.906,-71.777,0.000
1759631040.468,-15.137,-6.836,-22.461,-47.852,0.000
1759631040.472,-2.441,-16.113,-35.156,-52.734,0.000
1759631040.476,-73.242,-6.348,-2.930,-84.961,0.000
1759631040.480,-117.676,-14.648,11.230,-112.793,0.000
1759631040.484,-83.496,-14.160,7.324,-105.469,0.000
1759631040.488,-48.828,17.090,2.930,-93.262,0.000
1759631040.492,-127.441,12.695,12.695,-143.066,0.000
1759631040.496,-207.520,-21.973,17.578,-195.801,0.000
1759631040.500,-194.824,-2.930,24.414,-202.148,0.000
1759631040.504,-174.316,22.461,40.039,-222.168,0.000
1759631040.507,-244.629,32.715,44.922,-282.227,0.000
