timestamps,TP9,AF7,AF8,TP10,Right AUX
1759595983.339,-137.695,9.277,48.828,-13.184,0.000
1759595983.343,63.477,12.207,47.852,-2.441,0.000
1759595983.347,178.223,11.719,44.434,6.348,0.000
1759595983.351,-22.461,15.137,44.434,11.719,0.000
1759595983.355,-147.949,16.602,50.781,7.324,0.000
1759595983.358,-12.207,7.324,47.852,0.000,0.000
1759595983.362,178.223,10.254,39.062,20.996,0.000
1759595983.366,34.668,19.043,41.992,10.742,0.000
1759595983.370,-152.832,21.484,49.805,-0.488,0.000
1759595983.374,-80.566,19.043,47.852,4.395,0.000
1759595983.378,145.020,18.555,43.457,6.836,0.000
1759595983.382,93.262,18.066,43.945,-0.977,0.000
1759595983.386,-138.672,21.973,44.434,-10.742,0.000
1759595983.390,-135.254,19.531,37.109,-15.625,0.000
1759595983.394,87.402,18.066,33.203,-12.695,0.000
1759595983.398,140.625,22.949,38.086,-2.930,0.000
1759595983.401,-90.820,20.996,35.645,-6.836,0.000
1759595983.405,-160.156,18.555,32.227,-11.230,0.000
1759595983.409,32.227,18.066,28.320,-9.277,0.000
1759595983.413,167.480,18.555,25.879,-4.395,0.000
1759595983.417,-30.273,16.602,23.438,-13.672,0.000
1759595983.421,-170.898,13.184,19.531,-18.555,0.000
1759595983.425,-39.062,14.160,31.250,-25.879,0.000
1759595983.429,163.574,18.066,36.133,-14.648,0.000
1759595983.433,38.086,20.996,32.715,-13.672,0.000
1759595983.437,-163.574,19.531,29.297,-23.926,0.000
1759595983.440,-93.750,17.090,25.391,-13.184,0.000
1759595983.444,139.160,20.508,26.367,-3.906,0.000
1759595983.448,104.980,19.531,24.414,-13.672,0.000
1759595983.452,-117.676,18.066,17.578,-19.531,0.000
1759595983.456,-133.789,19.043,16.602,-19.043,0.000
1759595983.460,72.266,18.066,33.691,-2.930,0.000
1759595983.464,158.691,9.766,42.480,20.020,0.000
1759595983.468,-52.246,5.859,35.645,19.043,0.000
1759595983.472,-154.785,17.578,23.438,-16.602,0.000
1759595983.476,-4.395,20.996,17.578,-37.598,0.000
1759595983.480,145.996,19.531,23.926,-32.715,0.000
1759595983.483,-30.273,25.391,28.320,-42.480,0.000
1759595983.487,-206.055,27.832,26.855,-79.102,0.000
1759595983.491,-104.492,32.715,30.762,-85.449,0.000
1759595983.495,109.375,38.574,25.879,-73.242,0.000
1759595983.499,-18.066,38.574,14.160,-107.910,0.000
1759595983.503,-237.793,41.992,13.672,-131.836,0.000
1759595983.507,-189.941,41.992,18.555,-129.395,0.000
1759595983.511,28.320,41.016,15.625,-111.328,0.000
1759595983.515,27.344,46.875,7.812,-118.164,0.000
1759595983.519,-207.031,50.781,17.578,-141.602,0.000
1759595983.522,-243.652,53.223,25.879,-138.184,0.000
1759595983.526,-29.297,46.875,25.391,-116.211,0.000
1759595983.530,83.496,47.852,21.484,-103.516,0.000
1759595983.534,-115.234,53.711,15.625,-106.445,0.000
1759595983.538,-214.355,45.898,15.137,-105.957,0.000
1759595983.542,-55.176,35.645,20.508,-87.891,0.000
1759595983.546,123.535,34.180,20.996,-69.336,0.000
1759595983.550,-27.832,36.621,26.855,-63.965,0.000
1759595983.554,-185.059,38.086,29.297,-52.734,0.000
1759595983.558,-86.914,40.039,24.414,-41.992,0.000
1759595983.562,130.859,43.945,26.855,-35.645,0.000
1759595983.565,69.336,44.922,28.320,-29.785,0.000
1759595983.569,-142.578,36.133,21.484,-33.691,0.000
1759595983.573,-117.676,33.203,22.461,-34.668,0.000
1759595983.577,108.887,40.039,37.598,-17.578,0.000
1759595983.581,137.207,38.574,36.621,-7.812,0.000
1759595983.585,-91.797,35.645,31.250,-12.695,0.000
1759595983.589,-155.273,33.203,29.785,-19.531,0.000
1759595983.593,41.016,30.762,29.785,-17.090,0.000
1759595983.597,164.551,31.250,28.320,-11.230,0.000
1759595983.601,-39.062,28.809,22.461,-11.230,0.000
1759595983.605,-163.574,28.809,30.273,-11.230,0.000
1759595983.608,-28.320,29.785,33.203,-14.648,0.000
1759595983.612,172.363,29.297,28.320,-6.836,0.000
1759595983.616,42.480,30.273,29.297,-8.789,0.000
1759595983.620,-158.691,26.367,29.785,-20.020,0.000
1759595983.624,-80.566,23.926,33.691,-13.184,0.000
1759595983.628,145.996,24.414,35.156,-6.348,0.000
1759595983.632,102.539,20.020,27.832,1.465,0.000
1759595983.636,-116.211,16.602,31.250,-4.883,0.000
1759595983.640,-116.699,9.277,37.109,-15.625,0.000
1759595983.644,99.121,8.301,41.992,3.418,0.000
1759595983.647,154.297,13.672,41.016,9.277,0.000
1759595983.651,-75.684,14.648,37.598,-16.602,0.000
1759595983.655,-159.668,16.113,42.480,-25.879,0.000
1759595983.659,22.949,16.602,44.922,-14.648,0.000
1759595983.663,161.621,13.672,36.621,-5.859,0.000
1759595983.667,-27.832,13.672,37.109,-13.184,0.000
1759595983.671,-161.133,13.672,39.551,-9.277,0.000
1759595983.675,-35.645,14.160,38.574,-4.395,0.000
1759595983.679,172.363,20.508,38.086,-2.441,0.000
1759595983.683,61.035,24.902,39.062,-4.883,0.000
1759595983.687,-135.742,27.832,32.715,-0.977,0.000
1759595983.690,-78.125,25.391,28.320,8.789,0.000
1759595983.694,138.672,21.973,40.527,6.348,0.000
1759595983.698,120.605,26.855,48.340,-2.930,0.000
1759595983.702,-104.492,27.344,46.387,-2.930,0.000
1759595983.706,-128.906,22.949,42.969,0.977,0.000
1759595983.710,78.613,23.438,41.504,3.418,0.000
1759595983.714,153.320,24.414,32.715,0.000,0.000
1759595983.718,-65.430,22.949,36.133,-1.465,0.000
1759595983.722,-154.785,21.973,49.805,-2.930,0.000
1759595983.726,15.137,17.090,50.293,0.488,0.000
1759595983.729,172.852,14.160,41.504,8.789,0.000
1759595983.733,2.441,16.602,40.527,16.602,0.000
1759595983.737,-152.832,17.578,46.875,27.344,0.000
1759595983.741,-53.711,19.043,52.246,21.973,0.000
1759595983.745,156.738,20.020,48.340,14.160,0.000
1759595983.749,71.777,20.020,42.969,4.395,0.000
1759595983.753,-132.324,20.996,41.016,-5.371,0.000
1759595983.757,-102.051,20.996,41.016,-11.719,0.000
1759595983.761,129.395,26.367,42.969,9.277,0.000
1759595983.765,135.742,26.367,40.039,20.020,0.000
1759595983.769,-104.004,21.973,44.922,-0.488,0.000
1759595983.772,-138.672,19.531,46.875,-7.812,0.000
1759595983.776,62.988,11.719,36.621,0.488,0.000
1759595983.780,161.133,12.207,32.227,14.160,0.000
1759595983.784,-51.270,19.531,43.457,1.953,0.000
1759595983.788,-157.715,20.996,49.805,-11.719,0.000
1759595983.792,-0.977,18.066,43.457,-2.930,0.000
1759595983.796,183.105,20.508,41.992,15.625,0.000
1759595983.800,29.297,27.344,48.828,9.766,0.000
1759595983.804,-150.879,27.832,47.363,-2.441,0.000
1759595983.808,-63.965,22.949,41.016,0.000,0.000
1759595983.812,155.273,24.414,46.387,11.230,0.000
1759595983.815,86.914,28.809,48.340,6.836,0.000
1759595983.819,-132.324,23.438,44.922,2.441,0.000
1759595983.823,-114.746,23.926,42.969,-0.488,0.000
1759595983.827,101.562,24.414,42.969,3.906,0.000
1759595983.831,124.512,21.973,44.434,5.859,0.000
1759595983.835,-99.609,28.320,38.574,-7.812,0.000
1759595983.839,-146.973,32.227,41.992,0.977,0.000
1759595983.843,45.898,27.344,44.922,18.066,0.000
1759595983.847,168.945,27.344,48.340,10.742,0.000
1759595983.851,-25.391,28.320,44.922,2.441,0.000
1759595983.855,-159.668,24.902,34.668,-0.488,0.000
1759595983.858,-23.926,23.926,34.668,-3.418,0.000
1759595983.862,171.875,25.391,38.574,0.488,0.000
1759595983.866,35.645,24.414,41.504,-8.301,0.000
1759595983.870,-151.367,22.461,39.062,-11.719,0.000
1759595983.874,-77.148,22.461,40.527,-3.418,0.000
1759595983.878,146.973,23.438,45.410,8.301,0.000
1759595983.882,123.535,22.949,43.945,17.578,0.000
1759595983.886,-83.984,22.461,33.203,29.785,0.000
1759595983.890,-97.656,21.973,33.203,27.832,0.000
1759595983.894,97.656,21.484,46.875,13.184,0.000
1759595983.897,137.695,20.020,50.781,-5.371,0.000
1759595983.901,-83.984,18.066,52.734,-4.883,0.000
1759595983.905,-151.367,14.648,52.734,4.395,0.000
1759595983.909,33.203,11.719,46.387,9.277,0.000
1759595983.913,183.105,20.508,44.922,18.555,0.000
1759595983.917,-4.395,19.531,46.387,11.719,0.000
1759595983.921,-145.996,14.648,41.016,4.395,0.000
1759595983.925,-19.531,15.625,46.875,3.906,0.000
1759595983.929,176.758,12.695,51.758,23.438,0.000
1759595983.933,50.781,9.766,46.875,28.320,0.000
1759595983.937,-153.320,17.578,48.828,1.953,0.000
1759595983.940,-94.238,20.996,48.828,-2.441,0.000
1759595983.944,132.812,13.184,40.039,7.812,0.000
1759595983.948,124.023,14.648,40.039,10.742,0.000
1759595983.952,-98.145,13.184,49.316,5.859,0.000
1759595983.956,-113.770,8.789,57.129,13.672,0.000
1759595983.960,100.098,14.160,58.105,35.645,0.000
1759595983.964,173.340,15.625,53.711,31.738,0.000
1759595983.968,-55.664,10.742,48.828,11.230,0.000
1759595983.972,-143.555,11.719,51.270,8.789,0.000
1759595983.976,31.250,12.207,53.711,26.855,0.000
1759595983.979,180.176,15.625,46.875,26.855,0.000
1759595983.983,3.906,19.531,42.969,7.812,0.000
1759595983.987,-147.461,18.555,46.387,8.789,0.000
1759595983.991,-33.203,18.555,45.898,22.949,0.000
1759595983.995,172.852,17.090,46.387,29.785,0.000
1759595983.999,81.543,18.555,51.758,14.160,0.000
1759595984.003,-120.117,24.414,45.410,6.348,0.000
1759595984.007,-90.332,29.785,40.039,5.859,0.000
1759595984.011,126.953,31.250,54.688,7.812,0.000
1759595984.015,137.207,28.320,59.082,6.836,0.000
1759595984.019,-96.191,22.461,49.316,2.441,0.000
1759595984.022,-134.766,22.461,47.852,13.672,0.000
1759595984.026,68.359,26.367,51.270,9.766,0.000
1759595984.030,169.922,27.344,53.711,7.812,0.000
1759595984.034,-39.551,29.297,48.340,5.859,0.000
1759595984.038,-155.273,28.809,44.434,0.488,0.000
1759595984.042,-4.395,24.902,46.875,0.977,0.000
1759595984.046,178.223,24.414,45.898,3.418,0.000
1759595984.050,21.484,21.484,45.410,5.371,0.000
1759595984.054,-150.391,24.414,50.293,3.906,0.000
1759595984.058,-58.105,27.344,44.922,-4.395,0.000
1759595984.062,159.668,21.484,36.133,1.465,0.000
1759595984.065,87.891,16.113,42.969,1.953,0.000
1759595984.069,-137.207,13.672,46.875,-13.184,0.000
1759595984.073,-110.840,15.137,48.828,-15.137,0.000
1759595984.077,106.445,11.230,45.898,2.930,0.000
1759595984.081,134.277,8.301,46.875,4.395,0.000
1759595984.085,-93.262,9.766,45.410,-7.812,0.000
1759595984.089,-151.855,14.648,41.992,-3.906,0.000
1759595984.093,57.129,22.461,41.504,14.648,0.000
1759595984.097,183.105,19.531,41.504,21.973,0.000
1759595984.101,-24.902,19.043,49.805,9.766,0.000
1759595984.104,-157.227,17.090,56.152,3.418,0.000
1759595984.108,-18.066,10.254,49.316,11.719,0.000
1759595984.112,182.129,15.137,43.945,23.438,0.000
1759595984.116,45.410,19.531,54.688,15.137,0.000
1759595984.120,-150.879,19.043,58.594,6.836,0.000
1759595984.124,-76.660,17.578,52.246,7.812,0.000
1759595984.128,145.996,15.625,45.898,6.836,0.000
1759595984.132,99.609,15.625,42.969,5.859,0.000
1759595984.136,-126.953,12.207,42.480,9.766,0.000
1759595984.140,-128.418,11.230,41.992,9.277,0.000
1759595984.144,79.102,12.207,44.922,1.953,0.000
1759595984.147,129.883,8.301,43.945,-0.488,0.000
1759595984.151,-93.262,13.672,44.922,-1.465,0.000
1759595984.155,-162.109,17.090,41.992,-1.465,0.000
1759595984.159,22.949,10.254,39.062,10.254,0.000
1759595984.163,163.086,10.742,42.969,16.113,0.000
1759595984.167,-20.508,12.695,33.691,3.906,0.000
1759595984.171,-164.551,11.230,33.691,3.418,0.000
1759595984.175,-44.434,14.648,48.828,9.277,0.000
1759595984.179,159.668,17.090,50.781,10.254,0.000
1759595984.183,49.805,16.113,42.480,5.371,0.000
1759595984.187,-155.762,10.254,38.574,-1.465,0.000
1759595984.190,-113.770,1.953,35.645,-14.160,0.000
1759595984.194,114.746,3.418,34.180,-8.301,0.000
1759595984.198,109.863,8.789,32.715,0.000,0.000
1759595984.202,-113.770,10.742,34.668,-1.465,0.000
1759595984.206,-133.301,11.230,39.551,-5.371,0.000
1759595984.210,75.195,13.672,36.133,-7.324,0.000
1759595984.214,160.156,16.602,36.621,14.160,0.000
1759595984.218,-50.293,19.531,32.227,29.785,0.000
1759595984.222,-147.949,19.043,30.762,11.230,0.000
1759595984.226,23.926,18.066,42.480,0.488,0.000
1759595984.229,182.129,19.043,50.293,10.254,0.000
1759595984.233,-1.953,12.207,47.852,1.465,0.000
1759595984.237,-160.645,16.113,47.363,-6.348,0.000
1759595984.241,-50.293,21.484,44.922,-2.441,0.000
1759595984.245,167.969,17.090,41.992,11.719,0.000
1759595984.249,80.078,15.137,44.434,10.254,0.000
1759595984.253,-129.883,13.184,46.387,-5.371,0.000
1759595984.257,-92.773,15.625,40.039,-5.371,0.000
1759595984.261,124.512,14.160,33.203,10.742,0.000
1759595984.265,129.395,13.184,37.598,4.395,0.000
1759595984.269,-95.703,13.672,41.016,-1.465,0.000
1759595984.272,-136.230,16.113,42.480,-5.371,0.000
1759595984.276,60.059,20.996,42.969,-1.953,0.000
1759595984.280,167.969,24.414,43.457,10.254,0.000
1759595984.284,-44.434,17.578,43.457,0.977,0.000
1759595984.288,-160.645,15.625,43.457,-6.836,0.000
1759595984.292,4.395,16.113,45.410,-0.977,0.000
1759595984.296,177.734,12.695,43.945,7.324,0.000
1759595984.300,11.230,8.789,43.457,-6.348,0.000
1759595984.304,-160.645,9.766,45.410,-3.418,0.000
1759595984.308,-67.871,13.672,37.598,7.812,0.000
1759595984.311,145.020,14.160,39.062,0.000,0.000
1759595984.315,77.148,14.648,42.969,-4.395,0.000
1759595984.319,-143.555,13.184,38.574,-9.766,0.000
1759595984.323,-124.512,12.207,36.133,-8.789,0.000
1759595984.327,98.633,13.672,31.738,-1.465,0.000
1759595984.331,130.859,14.648,35.645,0.977,0.000
1759595984.335,-92.773,15.137,37.598,-5.859,0.000
1759595984.339,-152.344,16.113,41.016,-13.184,0.000
1759595984.343,36.621,11.230,43.945,2.930,0.000
1759595984.347,166.016,11.719,41.504,11.719,0.000
1759595984.351,-29.297,17.090,39.062,7.812,0.000
1759595984.354,-166.016,19.531,37.598,2.930,0.000
1759595984.358,-38.086,20.508,36.133,-7.812,0.000
1759595984.362,157.715,19.531,35.645,0.488,0.000
1759595984.366,37.109,22.461,40.039,1.465,0.000
1759595984.370,-158.691,21.973,41.992,-10.742,0.000
1759595984.374,-93.750,17.578,39.551,-12.207,0.000
1759595984.378,131.836,15.625,37.109,3.906,0.000
1759595984.382,95.215,20.020,35.156,2.930,0.000
1759595984.386,-129.395,21.484,36.133,-14.648,0.000
1759595984.390,-123.047,25.391,39.551,-7.812,0.000
1759595984.394,95.703,29.785,37.109,14.160,0.000
1759595984.397,147.949,21.484,29.297,17.090,0.000
1759595984.401,-73.730,23.438,33.203,-2.441,0.000
1759595984.405,-155.273,25.391,33.203,-16.602,0.000
1759595984.409,22.949,18.555,30.762,-7.812,0.000
1759595984.413,169.434,20.020,34.668,4.395,0.000
1759595984.417,-19.531,26.367,41.504,-5.371,0.000
1759595984.421,-169.922,22.461,41.504,-15.137,0.000
1759595984.425,-46.387,20.996,36.133,-6.836,0.000
1759595984.429,168.945,28.809,37.598,9.766,0.000
1759595984.433,57.129,25.391,34.668,5.371,0.000
1759595984.436,-142.578,20.996,25.879,-2.441,0.000
1759595984.440,-80.566,21.973,31.250,3.906,0.000
1759595984.444,133.789,21.973,41.016,13.672,0.000
1759595984.448,118.164,25.391,46.387,2.441,0.000
1759595984.452,-106.934,23.438,38.574,-6.348,0.000
1759595984.456,-135.254,20.508,33.203,1.465,0.000
1759595984.460,68.359,19.531,39.551,-0.977,0.000
1759595984.464,150.391,14.648,31.738,-10.742,0.000
1759595984.468,-70.312,13.672,24.414,-26.855,0.000
1759595984.472,-164.062,16.113,30.273,-18.555,0.000
1759595984.476,5.371,18.555,33.691,-11.230,0.000
1759595984.479,164.551,14.648,35.156,-16.113,0.000
1759595984.483,-5.371,11.230,29.297,-10.254,0.000
1759595984.487,-166.016,12.695,24.414,-4.883,0.000
1759595984.491,-73.242,9.766,35.645,-18.555,0.000
1759595984.495,138.184,7.812,41.504,-11.230,0.000
1759595984.499,59.570,8.789,38.086,-3.418,0.000
1759595984.503,-147.461,12.695,37.598,-14.648,0.000
1759595984.507,-103.516,13.184,39.551,-13.184,0.000
1759595984.511,120.605,11.719,35.645,-3.418,0.000
1759595984.515,129.883,8.789,34.668,0.977,0.000
1759595984.518,-98.633,15.625,36.133,-7.812,0.000
1759595984.522,-144.531,23.438,40.527,-18.555,0.000
1759595984.526,47.852,22.461,46.875,-4.883,0.000
1759595984.530,161.621,21.973,44.434,15.625,0.000
1759595984.534,-49.316,15.625,41.504,6.348,0.000
1759595984.538,-171.875,16.113,41.016,-4.883,0.000
1759595984.542,-19.531,17.090,39.062,-1.953,0.000
1759595984.546,171.875,15.137,37.598,13.672,0.000
1759595984.550,27.832,17.578,43.945,13.184,0.000
1759595984.554,-146.973,21.484,46.875,2.930,0.000
1759595984.558,-64.941,20.020,41.016,-0.488,0.000
1759595984.561,145.996,16.113,35.645,12.207,0.000
1759595984.565,97.168,17.578,37.598,8.301,0.000
1759595984.569,-119.141,20.020,37.598,4.883,0.000
1759595984.573,-113.770,20.508,34.180,4.883,0.000
1759595984.577,106.934,18.066,37.598,8.789,0.000
1759595984.581,150.391,21.973,36.133,11.719,0.000
1759595984.585,-68.359,29.785,41.992,-3.906,0.000
1759595984.589,-125.000,23.438,45.410,1.465,0.000
1759595984.593,54.199,14.648,35.645,19.531,0.000
1759595984.597,175.293,17.578,39.062,13.184,0.000
1759595984.601,-15.137,22.461,39.551,7.324,0.000
1759595984.604,-146.973,17.578,41.992,2.930,0.000
1759595984.608,-19.043,16.113,51.758,3.418,0.000
1759595984.612,176.270,21.484,53.223,11.719,0.000
1759595984.616,41.992,23.438,48.340,11.719,0.000
1759595984.620,-154.785,20.020,41.504,5.371,0.000
1759595984.624,-81.055,14.160,36.133,1.465,0.000
1759595984.628,130.859,12.207,30.273,4.883,0.000
1759595984.632,103.027,17.090,30.273,6.348,0.000
1759595984.636,-108.887,18.066,32.715,4.883,0.000
1759595984.640,-128.418,14.160,36.621,-8.301,0.000
1759595984.643,76.660,18.066,41.016,-7.812,0.000
1759595984.647,140.625,21.484,39.062,5.859,0.000
1759595984.651,-81.055,9.766,39.062,-0.977,0.000
1759595984.655,-163.086,7.324,32.227,-12.695,0.000
1759595984.659,9.277,11.719,33.203,2.441,0.000
1759595984.663,160.156,8.301,37.598,11.230,0.000
1759595984.667,-25.879,10.254,41.504,-1.953,0.000
1759595984.671,-165.527,12.695,42.969,-6.348,0.000
1759595984.675,-43.945,16.113,40.039,-7.812,0.000
1759595984.679,150.391,18.066,39.062,6.836,0.000
1759595984.683,47.363,15.137,38.574,4.883,0.000
1759595984.686,-148.926,17.578,41.992,-20.020,0.000
1759595984.690,-100.098,15.625,43.945,-18.555,0.000
1759595984.694,130.371,13.672,42.480,4.395,0.000
1759595984.698,134.277,14.160,41.016,10.742,0.000
1759595984.702,-99.609,17.578,42.480,8.789,0.000
1759595984.706,-134.277,18.555,35.645,6.348,0.000
1759595984.710,66.895,16.113,34.668,7.812,0.000
1759595984.714,155.273,14.160,41.992,7.812,0.000
1759595984.718,-62.988,6.836,31.738,-13.672,0.000
1759595984.722,-162.109,5.859,22.461,-14.160,0.000
1759595984.726,7.812,12.695,27.832,8.789,0.000
1759595984.729,175.293,21.973,38.574,15.625,0.000
1759595984.733,8.789,19.043,32.715,2.441,0.000
1759595984.737,-149.414,8.789,32.227,-1.953,0.000
1759595984.741,-57.617,3.418,36.621,4.883,0.000
1759595984.745,155.273,1.953,38.574,11.230,0.000
1759595984.749,89.844,8.789,44.434,13.184,0.000
1759595984.753,-115.234,9.766,36.621,9.766,0.000
1759595984.757,-98.145,0.488,32.227,10.742,0.000
1759595984.761,112.793,-0.488,31.738,8.789,0.000
1759595984.765,135.742,2.930,31.738,8.789,0.000
1759595984.768,-92.285,4.883,34.180,5.859,0.000
1759595984.772,-139.648,6.836,34.668,6.836,0.000
1759595984.776,52.734,7.812,36.133,1.953,0.000
1759595984.780,166.504,6.836,33.691,5.859,0.000
1759595984.784,-31.738,5.371,30.273,-1.953,0.000
1759595984.788,-156.738,9.766,30.273,-16.602,0.000
1759595984.792,-15.137,8.789,35.156,-13.672,0.000
1759595984.796,176.758,10.254,38.574,-1.953,0.000
1759595984.800,26.855,14.648,29.297,-2.441,0.000
1759595984.804,-159.180,16.113,27.344,-13.672,0.000
1759595984.808,-75.684,18.555,40.039,-9.766,0.000
1759595984.811,151.367,14.648,40.527,11.230,0.000
1759595984.815,113.770,10.742,34.668,9.766,0.000
1759595984.819,-116.699,11.719,37.598,-8.301,0.000
1759595984.823,-125.488,10.742,30.273,-15.625,0.000
1759595984.827,91.797,9.766,32.715,-6.348,0.000
1759595984.831,141.113,12.207,35.645,0.488,0.000
1759595984.835,-84.961,13.672,34.180,-2.930,0.000
1759595984.839,-156.738,15.625,39.062,-9.277,0.000
1759595984.843,32.227,18.555,41.016,1.465,0.000
1759595984.847,172.363,18.555,39.551,11.230,0.000
1759595984.850,-21.484,15.137,42.480,4.883,0.000
1759595984.854,-162.598,13.184,42.969,1.953,0.000
1759595984.858,-28.320,13.672,34.180,-0.977,0.000
1759595984.862,172.363,11.719,32.227,12.695,0.000
1759595984.866,40.039,13.672,38.086,6.836,0.000
1759595984.870,-153.809,17.090,42.969,-0.977,0.000
1759595984.874,-87.402,13.184,39.062,1.465,0.000
1759595984.878,138.184,14.648,41.992,15.625,0.000
1759595984.882,118.164,19.043,42.969,11.719,0.000
1759595984.886,-107.422,12.695,33.691,-1.953,0.000
1759595984.890,-122.559,12.695,34.180,8.301,0.000
1759595984.893,89.844,17.090,41.016,19.531,0.000
1759595984.897,149.902,15.137,38.574,13.184,0.000
1759595984.901,-65.918,16.113,36.621,2.441,0.000
1759595984.905,-146.973,10.742,37.598,-0.977,0.000
1759595984.909,22.949,15.137,40.527,11.230,0.000
1759595984.913,185.547,21.973,46.387,23.438,0.000
1759595984.917,6.348,15.625,47.852,7.812,0.000
1759595984.921,-147.949,13.672,41.016,10.254,0.000
1759595984.925,-35.156,16.602,41.992,8.301,0.000
1759595984.929,160.156,15.137,43.945,2.930,0.000
1759595984.933,60.547,16.602,41.992,8.789,0.000
1759595984.936,-134.277,22.949,47.363,8.301,0.000
1759595984.940,-96.191,21.973,45.898,-4.395,0.000
1759595984.944,125.488,21.484,39.062,5.859,0.000
1759595984.948,139.160,22.461,44.922,21.484,0.000
1759595984.952,-83.496,17.090,45.898,12.207,0.000
1759595984.956,-128.906,15.625,48.340,6.348,0.000
1759595984.960,69.824,13.184,46.875,6.836,0.000
1759595984.964,164.551,11.230,37.598,4.395,0.000
1759595984.968,-44.434,14.160,32.227,4.883,0.000
1759595984.972,-152.344,15.625,40.039,1.465,0.000
1759595984.975,7.324,19.043,43.945,6.348,0.000
1759595984.979,182.129,18.066,38.086,14.160,0.000
1759595984.983,12.207,20.020,37.109,-3.418,0.000
1759595984.987,-154.785,25.879,38.574,-13.184,0.000
1759595984.991,-59.570,21.973,38.574,-7.324,0.000
1759595984.995,149.414,20.020,39.062,5.371,0.000
1759595984.999,78.125,18.066,34.180,-3.906,0.000
1759595985.003,-141.602,16.602,35.645,-17.578,0.000
1759595985.007,-119.629,21.484,32.227,-10.742,0.000
1759595985.011,109.375,18.555,20.996,2.441,0.000
1759595985.015,131.836,17.090,27.344,-8.789,0.000
1759595985.018,-96.191,23.438,36.621,-22.461,0.000
1759595985.022,-143.066,21.484,32.715,-19.531,0.000
1759595985.026,45.410,12.207,23.438,-13.184,0.000
1759595985.030,161.133,16.113,28.809,-4.883,0.000
1759595985.034,-39.551,15.625,33.691,-13.672,0.000
1759595985.038,-161.621,13.184,38.086,-10.742,0.000
1759595985.042,-20.508,13.672,41.016,-3.906,0.000
1759595985.046,169.922,11.230,36.621,0.000,0.000
1759595985.050,27.832,15.137,34.668,-0.977,0.000
1759595985.054,-161.621,19.043,31.738,-5.859,0.000
1759595985.058,-78.613,17.090,30.273,3.418,0.000
1759595985.061,140.137,19.531,32.227,0.000,0.000
1759595985.065,92.773,21.484,35.156,-1.953,0.000
1759595985.069,-122.559,20.508,37.598,-1.953,0.000
1759595985.073,-115.234,19.531,40.039,-6.348,0.000
1759595985.077,103.027,18.066,44.434,-1.465,0.000
1759595985.081,148.926,20.996,36.621,0.977,0.000
1759595985.085,-80.566,22.949,29.785,-8.789,0.000
1759595985.089,-154.785,19.531,37.598,-15.137,0.000
1759595985.093,26.367,20.020,36.621,-4.883,0.000
1759595985.097,158.691,18.066,29.785,1.953,0.000
1759595985.100,-30.762,15.625,28.809,-9.766,0.000
1759595985.104,-165.039,20.996,36.621,-7.324,0.000
1759595985.108,-43.457,28.320,41.504,-4.883,0.000
1759595985.112,156.738,30.273,43.457,3.418,0.000
1759595985.116,41.504,28.809,42.480,3.906,0.000
1759595985.120,-152.344,27.344,41.016,-6.836,0.000
1759595985.124,-85.449,29.785,41.504,0.000,0.000
1759595985.128,139.648,24.414,35.645,12.207,0.000
1759595985.132,118.652,21.973,27.832,14.648,0.000
1759595985.136,-107.422,19.043,29.297,-0.488,0.000
1759595985.140,-121.582,17.090,34.668,-13.184,0.000
1759595985.143,83.496,16.113,35.645,3.906,0.000
1759595985.147,154.297,11.230,35.156,16.113,0.000
1759595985.151,-69.336,9.766,31.250,-8.789,0.000
1759595985.155,-159.668,8.301,31.738,-18.555,0.000
1759595985.159,15.625,10.254,40.527,0.488,0.000
1759595985.163,168.457,14.160,44.434,21.484,0.000
1759595985.167,-3.906,17.578,45.898,12.695,0.000
1759595985.171,-157.715,18.066,42.969,-2.930,0.000
1759595985.175,-45.898,13.184,41.504,1.465,0.000
1759595985.179,162.598,17.578,41.016,10.254,0.000
1759595985.182,62.500,20.996,34.180,-1.953,0.000
1759595985.186,-139.648,16.602,28.320,-9.277,0.000
1759595985.190,-95.215,14.648,31.250,-1.953,0.000
1759595985.194,122.070,11.719,34.180,0.000,0.000
1759595985.198,119.629,14.648,42.969,2.930,0.000
1759595985.202,-102.539,14.648,47.363,6.836,0.000
1759595985.206,-131.348,12.695,42.969,4.395,0.000
1759595985.210,73.730,12.695,43.457,-0.977,0.000
1759595985.214,164.551,13.184,44.922,-7.324,0.000
1759595985.218,-45.898,15.625,44.434,-14.160,0.000
1759595985.222,-152.832,8.301,36.133,-14.648,0.000
1759595985.225,0.000,10.254,34.668,-3.906,0.000
1759595985.229,170.898,16.113,48.340,10.742,0.000
1759595985.233,9.277,11.230,47.363,7.812,0.000
1759595985.237,-154.297,15.137,43.945,0.488,0.000
1759595985.241,-62.988,24.414,48.828,-3.906,0.000
1759595985.245,151.855,25.879,48.340,10.254,0.000
1759595985.249,74.219,20.508,37.109,6.348,0.000
1759595985.253,-141.602,19.043,36.133,-11.230,0.000
1759595985.257,-114.258,20.996,42.969,-16.113,0.000
1759595985.261,94.238,16.113,35.645,-10.254,0.000
1759595985.265,126.953,13.672,36.133,0.488,0.000
1759595985.268,-96.680,16.113,30.762,-7.324,0.000
1759595985.272,-157.227,18.066,25.879,-18.066,0.000
1759595985.276,42.480,21.973,37.598,-4.395,0.000
1759595985.280,168.457,19.531,38.086,10.254,0.000
1759595985.284,-32.227,16.602,37.598,3.418,0.000
1759595985.288,-160.156,22.461,37.109,-1.465,0.000
1759595985.292,-15.625,27.344,40.039,0.000,0.000
1759595985.296,178.711,25.391,42.480,16.602,0.000
1759595985.300,38.574,24.902,39.551,5.859,0.000
1759595985.304,-149.414,22.461,32.227,-13.184,0.000
1759595985.307,-75.684,20.508,30.762,-7.324,0.000
1759595985.311,141.113,22.949,41.016,6.348,0.000
1759595985.315,94.727,27.344,47.852,8.301,0.000
1759595985.319,-123.535,25.391,48.340,3.906,0.000
1759595985.323,-119.141,21.484,44.434,-6.348,0.000
1759595985.327,90.820,21.973,32.715,0.000,0.000
1759595985.331,139.648,20.996,32.715,4.883,0.000
1759595985.335,-80.078,24.414,43.945,-9.766,0.000
1759595985.339,-152.344,23.438,39.551,-0.488,0.000
1759595985.343,26.367,20.020,37.598,20.020,0.000
1759595985.347,168.945,29.785,44.434,10.742,0.000
1759595985.350,-13.672,27.832,47.852,-9.766,0.000
1759595985.354,-152.832,22.949,53.223,-9.766,0.000
1759595985.358,-29.297,28.320,59.082,1.465,0.000
1759595985.362,174.805,27.832,55.176,12.207,0.000
1759595985.366,61.035,22.461,48.828,9.277,0.000
1759595985.370,-128.418,23.926,54.688,10.742,0.000
1759595985.374,-66.406,28.320,59.082,12.207,0.000
1759595985.378,156.738,27.344,55.176,25.879,0.000
1759595985.382,136.230,26.367,50.293,28.320,0.000
1759595985.386,-97.168,30.273,47.363,24.902,0.000
1759595985.390,-115.234,30.273,46.387,22.949,0.000
1759595985.393,91.797,24.414,47.363,19.043,0.000
1759595985.397,167.969,20.020,56.641,18.555,0.000
1759595985.401,-48.828,17.578,57.129,11.719,0.000
1759595985.405,-146.484,17.578,56.152,11.719,0.000
1759595985.409,21.973,22.949,50.781,15.137,0.000
1759595985.413,185.547,25.879,43.457,22.461,0.000
1759595985.417,6.836,23.926,49.316,16.113,0.000
1759595985.421,-143.066,25.391,47.852,-0.977,0.000
1759595985.425,-17.578,25.391,39.551,-0.977,0.000
1759595985.429,181.152,25.391,40.527,15.625,0.000
1759595985.432,83.496,17.090,52.734,18.555,0.000
1759595985.436,-120.117,20.508,61.523,7.812,0.000
1759595985.440,-84.961,26.855,62.012,1.465,0.000
1759595985.444,139.160,27.344,61.035,16.113,0.000
1759595985.448,150.391,25.879,53.223,24.414,0.000
1759595985.452,-70.801,23.438,43.457,14.160,0.000
1759595985.456,-112.793,21.484,41.504,12.207,0.000
1759595985.460,90.820,20.020,45.410,17.090,0.000
1759595985.464,195.801,25.391,52.734,23.438,0.000
1759595985.468,-21.484,20.996,54.688,13.184,0.000
1759595985.472,-139.648,16.113,49.316,3.906,0.000
1759595985.475,9.277,18.066,50.293,15.625,0.000
1759595985.479,180.176,21.973,56.641,27.344,0.000
1759595985.483,26.367,20.508,49.316,15.625,0.000
1759595985.487,-136.230,17.578,44.922,4.883,0.000
1759595985.491,-50.781,24.902,52.734,16.113,0.000
1759595985.495,157.227,22.949,50.293,20.996,0.000
1759595985.499,91.797,21.484,46.875,6.348,0.000
1759595985.503,-117.188,26.367,45.410,7.324,0.000
1759595985.507,-95.703,26.367,46.387,13.672,0.000
1759595985.511,125.488,27.832,50.293,20.020,0.000
1759595985.514,156.738,28.809,52.246,22.461,0.000
1759595985.518,-68.848,23.926,48.340,17.578,0.000
1759595985.522,-130.859,14.648,39.551,10.254,0.000
1759595985.526,53.223,20.020,34.668,-1.465,0.000
1759595985.530,177.246,23.926,41.992,9.277,0.000
1759595985.534,-22.461,18.066,41.992,3.906,0.000
1759595985.538,-148.438,20.508,40.039,-13.184,0.000
1759595985.542,-11.719,18.066,41.504,-4.883,0.000
1759595985.546,176.270,20.508,46.875,12.695,0.000
1759595985.550,40.527,23.438,46.875,5.859,0.000
1759595985.554,-134.766,24.414,45.410,6.836,0.000
1759595985.557,-53.223,23.438,53.711,15.625,0.000
1759595985.561,160.645,22.461,55.664,25.879,0.000
1759595985.565,113.770,21.973,47.852,28.320,0.000
1759595985.569,-99.121,28.320,46.875,14.160,0.000
1759595985.573,-103.027,35.156,47.363,0.488,0.000
1759595985.577,101.074,33.203,41.504,4.883,0.000
1759595985.581,157.715,29.785,33.691,21.484,0.000
1759595985.585,-56.152,29.785,35.156,6.348,0.000
1759595985.589,-127.930,29.297,45.410,-2.930,0.000
1759595985.593,54.199,31.250,53.711,10.254,0.000
1759595985.597,195.312,31.250,55.176,23.438,0.000
1759595985.600,6.348,26.855,52.734,12.207,0.000
1759595985.604,-139.160,23.438,49.805,7.812,0.000
1759595985.608,-25.391,24.414,41.504,19.043,0.000
1759595985.612,167.480,27.344,36.621,29.785,0.000
1759595985.616,51.758,22.461,41.016,8.301,0.000
1759595985.620,-137.695,20.996,42.480,-6.348,0.000
1759595985.624,-83.984,26.367,44.434,-0.977,0.000
1759595985.628,124.023,25.391,42.480,0.488,0.000
1759595985.632,112.793,20.020,41.016,-3.906,0.000
1759595985.636,-102.539,18.555,41.992,-7.324,0.000
1759595985.639,-136.230,15.625,37.598,-3.906,0.000
1759595985.643,66.895,13.184,39.062,5.371,0.000
1759595985.647,151.367,20.508,38.574,0.000,0.000
1759595985.651,-67.383,20.508,35.645,-13.672,0.000
1759595985.655,-156.738,19.531,36.133,-5.371,0.000
1759595985.659,11.719,23.438,33.203,1.465,0.000
1759595985.663,175.781,26.367,39.062,8.789,0.000
1759595985.667,10.254,27.344,44.922,5.371,0.000
1759595985.671,-144.531,20.020,39.551,7.324,0.000
1759595985.675,-43.945,18.066,38.574,10.742,0.000
1759595985.679,165.039,19.531,45.410,16.113,0.000
1759595985.682,75.684,21.484,38.086,7.812,0.000
1759595985.686,-128.906,22.461,29.785,-2.441,0.000
1759595985.690,-62.012,23.438,41.016,7.812,0.000
1759595985.694,145.508,22.461,38.574,20.996,0.000
1759595985.698,141.602,22.949,33.691,17.578,0.000
1759595985.702,-68.848,23.926,41.016,7.812,0.000
1759595985.706,-110.840,25.391,41.504,-3.906,0.000
1759595985.710,79.102,22.461,37.598,0.977,0.000
1759595985.714,178.223,23.438,39.551,8.789,0.000
1759595985.718,-24.902,27.344,41.016,5.371,0.000
1759595985.721,-143.066,26.855,37.598,-6.836,0.000
1759595985.725,0.000,20.508,34.668,-1.953,0.000
1759595985.729,181.641,19.531,32.715,16.602,0.000
1759595985.733,29.297,19.531,33.691,6.836,0.000
1759595985.737,-142.578,17.578,41.016,-6.836,0.000
1759595985.741,-55.664,16.113,41.016,-4.883,0.000
1759595985.745,158.691,18.066,39.062,12.695,0.000
1759595985.749,75.195,17.578,39.062,12.695,0.000
1759595985.753,-132.812,16.602,38.574,0.977,0.000
1759595985.757,-105.957,18.555,41.016,1.953,0.000
1759595985.761,107.910,22.949,42.969,21.973,0.000
1759595985.764,139.648,23.438,41.504,18.555,0.000
1759595985.768,-83.984,16.602,41.504,0.488,0.000
1759595985.772,-140.625,14.160,40.527,-1.465,0.000
1759595985.776,34.668,11.230,36.133,3.906,0.000
1759595985.780,159.668,10.254,41.992,7.812,0.000
1759595985.784,-25.391,14.648,43.457,-3.418,0.000
1759595985.788,-153.809,18.555,38.574,-10.742,0.000
1759595985.792,-20.020,18.555,37.598,-0.977,0.000
1759595985.796,160.156,13.672,30.762,12.207,0.000
1759595985.800,30.273,13.184,31.250,6.836,0.000
1759595985.804,-155.762,11.719,33.203,-0.977,0.000
1759595985.807,-90.820,9.766,32.715,0.488,0.000
1759595985.811,122.070,16.113,28.809,-6.836,0.000
1759595985.815,87.891,21.484,24.902,-11.230,0.000
1759595985.819,-125.488,18.555,34.180,-9.277,0.000
1759595985.823,-126.953,17.578,39.551,-12.207,0.000
1759595985.827,87.891,18.555,39.551,-9.766,0.000
1759595985.831,155.273,20.508,37.598,-4.883,0.000
1759595985.835,-61.523,19.043,38.574,-9.766,0.000
1759595985.839,-138.672,16.602,43.945,-12.695,0.000
1759595985.843,37.109,21.973,41.504,-5.371,0.000
1759595985.846,172.852,24.902,38.574,-0.488,0.000
1759595985.850,-11.230,18.555,31.250,-5.371,0.000
1759595985.854,-161.133,18.555,31.250,-2.930,0.000
1759595985.858,-49.316,20.996,38.574,-15.625,0.000
1759595985.862,156.250,16.113,32.227,-11.719,0.000
1759595985.866,53.223,10.254,27.832,-6.836,0.000
1759595985.870,-148.438,9.277,34.668,-19.531,0.000
1759595985.874,-101.074,5.371,33.691,-19.531,0.000
1759595985.878,122.070,10.254,32.715,0.977,0.000
1759595985.882,124.512,16.113,33.203,8.301,0.000
1759595985.886,-92.285,16.113,33.691,-4.883,0.000
1759595985.889,-117.676,15.625,35.645,-9.766,0.000
1759595985.893,84.961,16.113,34.180,-3.906,0.000
1759595985.897,165.039,17.578,29.785,11.719,0.000
1759595985.901,-50.781,18.555,32.227,-3.418,0.000
1759595985.905,-148.926,20.996,46.387,-11.230,0.000
1759595985.909,18.555,20.508,51.270,-1.465,0.000
1759595985.913,177.734,19.043,53.711,9.766,0.000
1759595985.917,12.207,20.996,50.781,3.418,0.000
1759595985.921,-138.672,17.578,43.457,-5.371,0.000
1759595985.925,-40.527,19.043,44.922,5.859,0.000
1759595985.929,166.504,22.461,41.504,20.996,0.000
1759595985.932,80.078,17.090,42.969,20.996,0.000
1759595985.936,-128.906,14.648,47.363,7.324,0.000
1759595985.940,-95.215,19.043,45.410,8.301,0.000
1759595985.944,115.723,16.113,38.086,18.555,0.000
1759595985.948,128.906,9.766,35.645,13.672,0.000
1759595985.952,-100.098,10.254,38.574,-2.441,0.000
1759595985.956,-146.973,12.695,39.551,-5.371,0.000
1759595985.960,48.828,13.672,39.551,6.348,0.000
1759595985.964,158.691,11.230,37.109,3.906,0.000
1759595985.968,-41.016,8.789,37.598,-2.930,0.000
1759595985.971,-158.691,12.207,40.527,-2.441,0.000
1759595985.975,-13.184,13.672,43.457,7.324,0.000
1759595985.979,166.504,9.766,46.387,22.949,0.000
1759595985.983,22.461,6.348,44.434,14.648,0.000
1759595985.987,-149.414,8.789,41.992,11.230,0.000
1759595985.991,-71.289,15.625,45.410,5.371,0.000
1759595985.995,145.020,18.066,49.805,13.672,0.000
1759595985.999,96.680,16.602,48.828,19.531,0.000
1759595986.003,-118.652,17.578,43.457,3.418,0.000
1759595986.007,-110.352,24.414,49.316,-5.859,0.000
1759595986.011,101.562,23.926,55.176,5.859,0.000
1759595986.014,151.367,18.555,51.758,21.484,0.000
1759595986.018,-64.941,21.484,45.898,10.742,0.000
1759595986.022,-136.230,22.461,52.246,-0.977,0.000
1759595986.026,41.992,20.996,56.641,7.812,0.000
1759595986.030,173.340,21.484,54.199,20.020,0.000
1759595986.034,-27.344,15.137,51.758,7.812,0.000
1759595986.038,-165.527,13.672,47.363,-1.465,0.000
1759595986.042,-33.691,21.484,45.410,3.418,0.000
1759595986.046,159.180,19.531,43.457,22.949,0.000
1759595986.050,33.203,14.160,44.434,19.531,0.000
1759595986.053,-151.367,20.020,46.387,8.301,0.000
1759595986.057,-81.055,22.461,44.434,14.648,0.000
1759595986.061,131.348,20.996,44.434,15.625,0.000
1759595986.065,92.285,23.926,42.969,13.184,0.000
1759595986.069,-114.258,22.461,44.922,19.531,0.000
1759595986.073,-123.047,15.625,50.293,18.555,0.000
1759595986.077,73.242,17.578,47.852,16.113,0.000
1759595986.081,141.113,17.578,40.527,13.184,0.000
1759595986.085,-81.543,12.207,28.809,-16.113,0.000
1759595986.089,-170.410,1.465,13.672,-30.273,0.000
1759595986.093,-7.324,-7.812,8.789,-28.320,0.000
1759595986.096,139.160,-2.930,14.160,-24.414,0.000
1759595986.100,-34.668,1.465,21.484,-21.973,0.000
1759595986.104,-187.988,-7.324,15.137,-29.785,0.000
1759595986.108,-85.449,-13.672,6.348,-31.738,0.000
1759595986.112,112.305,-10.254,8.789,-21.973,0.000
1759595986.116,16.602,-14.160,6.836,-21.484,0.000
1759595986.120,-177.734,-17.578,0.488,-39.551,0.000
1759595986.124,-137.695,-20.996,-5.859,-49.316,0.000
1759595986.128,80.078,-20.508,-9.277,-41.016,0.000
1759595986.132,83.008,-14.160,-8.789,-48.340,0.000
1759595986.136,-137.695,-18.555,-13.672,-46.387,0.000
1759595986.139,-171.387,-25.879,-12.695,-40.527,0.000
1759595986.143,23.926,-27.832,-4.395,-39.062,0.000
1759595986.147,126.465,-24.902,-0.488,-22.949,0.000
1759595986.151,-78.613,-24.902,2.441,-31.738,0.000
1759595986.155,-186.523,-23.926,5.371,-42.480,0.000
1759595986.159,-25.879,-20.508,5.859,-26.367,0.000
1759595986.163,139.160,-20.020,-3.906,-21.973,0.000
1759595986.167,-34.180,-15.137,-5.371,-30.762,0.000
1759595986.171,-176.758,-13.184,1.953,-30.273,0.000
1759595986.175,-74.707,-9.277,2.930,-31.738,0.000
1759595986.178,122.559,-9.766,0.000,-20.020,0.000
1759595986.182,52.734,-9.277,-3.418,-16.602,0.000
1759595986.186,-150.391,-7.812,4.395,-24.414,0.000
1759595986.190,-122.070,-8.789,14.160,-14.160,0.000
1759595986.194,94.238,-9.277,17.578,0.488,0.000
1759595986.198,118.164,-12.207,17.090,0.000,0.000
1759595986.202,-107.422,-11.230,20.508,-13.184,0.000
1759595986.206,-160.156,-9.766,20.996,-19.043,0.000
1759595986.210,39.062,-6.836,14.648,-6.836,0.000
1759595986.214,149.414,-4.395,10.254,-12.207,0.000
1759595986.218,-56.641,-7.324,11.719,-23.926,0.000
1759595986.221,-177.246,-9.277,12.695,-24.902,0.000
1759595986.225,-39.062,-15.137,8.301,-26.367,0.000
1759595986.229,142.090,-15.137,9.766,-23.926,0.000
1759595986.233,3.906,-8.301,20.508,-37.109,0.000
1759595986.237,-175.781,-9.766,18.066,-35.645,0.000
1759595986.241,-100.098,-7.324,12.695,-22.949,0.000
1759595986.245,121.582,-0.977,20.508,-14.648,0.000
1759595986.249,81.543,0.488,19.531,-11.230,0.000
1759595986.253,-138.672,-2.441,12.207,-11.230,0.000
1759595986.257,-130.371,-4.883,10.254,-9.766,0.000
1759595986.261,91.309,-4.883,11.719,-6.836,0.000
1759595986.264,122.070,-1.953,10.254,-12.207,0.000
1759595986.268,-85.449,-1.465,13.672,-11.230,0.000
1759595986.272,-143.555,-3.906,10.742,-4.395,0.000
1759595986.276,22.949,-0.977,14.160,-11.230,0.000
1759595986.280,155.762,1.465,20.508,-5.371,0.000
1759595986.284,-26.855,2.441,20.996,-10.254,0.000
1759595986.288,-161.621,3.418,26.367,-8.301,0.000
1759595986.292,-43.945,-3.418,25.879,0.488,0.000
1759595986.296,142.578,-7.324,26.367,0.000,0.000
1759595986.300,20.508,-9.277,23.438,-7.324,0.000
1759595986.303,-167.969,-14.160,16.113,-20.020,0.000
1759595986.307,-109.863,-12.207,20.508,-30.762,0.000
1759595986.311,107.910,-7.324,18.066,-15.137,0.000
1759595986.315,85.938,-12.695,9.277,-7.812,0.000
1759595986.319,-134.766,-17.578,8.301,-23.926,0.000
1759595986.323,-149.902,-14.160,4.883,-31.250,0.000
1759595986.327,50.781,-11.230,7.324,-16.113,0.000
1759595986.331,126.465,-14.160,12.207,-10.742,0.000
1759595986.335,-82.031,-16.113,9.277,-27.344,0.000
1759595986.339,-162.109,-14.648,5.371,-29.785,0.000
1759595986.343,1.953,-14.648,9.766,-18.066,0.000
1759595986.346,153.320,-11.230,13.184,-13.672,0.000
1759595986.350,-18.555,-13.672,8.789,-17.578,0.000
1759595986.354,-176.758,-14.648,10.254,-26.367,0.000
1759595986.358,-71.289,-16.113,9.766,-22.949,0.000
1759595986.362,128.418,-17.578,5.371,-2.930,0.000
1759595986.366,30.762,-9.766,10.254,-11.230,0.000
1759595986.370,-167.969,-6.836,19.531,-26.367,0.000
1759595986.374,-122.070,-5.859,23.438,-22.949,0.000
1759595986.378,93.262,-3.418,20.508,-15.137,0.000
1759595986.382,102.051,1.465,19.531,-6.348,0.000
1759595986.385,-113.770,2.930,16.602,-8.301,0.000
1759595986.389,-149.414,-2.441,15.137,-15.137,0.000
1759595986.393,46.875,-5.371,14.160,-4.395,0.000
1759595986.397,147.461,2.441,14.648,0.000,0.000
1759595986.401,-57.617,3.418,9.766,-10.254,0.000
1759595986.405,-162.598,-2.930,4.395,-15.137,0.000
1759595986.409,-10.742,0.977,11.230,-12.695,0.000
1759595986.413,150.391,3.418,18.066,-4.395,0.000
1759595986.417,2.930,0.977,13.672,-2.930,0.000
1759595986.421,-156.250,-0.488,13.184,-13.184,0.000
1759595986.425,-60.547,8.301,15.137,-22.461,0.000
1759595986.428,153.320,16.602,15.625,-18.066,0.000
1759595986.432,78.125,18.555,19.043,-12.207,0.000
1759595986.436,-133.789,20.996,22.949,-13.672,0.000
1759595986.440,-111.328,18.066,24.414,-17.578,0.000
1759595986.444,103.516,14.160,21.973,-5.371,0.000
1759595986.448,130.859,15.137,21.973,3.418,0.000
1759595986.452,-83.008,17.578,25.879,-0.977,0.000
1759595986.456,-134.277,15.625,30.273,-1.465,0.000
1759595986.460,46.875,11.719,25.879,-3.906,0.000
1759595986.464,164.551,17.090,24.414,-3.418,0.000
1759595986.467,-31.250,19.531,30.273,-0.977,0.000
1759595986.471,-157.227,14.648,32.715,-15.137,0.000
1759595986.475,-21.973,10.254,34.180,-22.461,0.000
1759595986.479,157.715,6.348,36.133,-8.301,0.000
1759595986.483,25.391,5.371,33.691,-11.230,0.000
1759595986.487,-155.762,3.906,30.273,-17.578,0.000
1759595986.491,-91.309,-1.953,26.367,-13.184,0.000
1759595986.495,134.766,4.883,25.879,-1.953,0.000
1759595986.499,98.633,10.742,27.344,7.812,0.000
1759595986.503,-125.977,7.324,27.344,3.418,0.000
1759595986.507,-121.094,13.672,28.809,0.488,0.000
1759595986.510,95.215,16.602,20.996,8.301,0.000
1759595986.514,144.531,12.695,24.902,8.301,0.000
1759595986.518,-75.195,8.301,32.715,-11.230,0.000
1759595986.522,-142.578,9.766,32.227,-13.672,0.000
1759595986.526,28.809,4.395,28.809,-8.301,0.000
1759595986.530,151.855,-1.465,26.367,-7.324,0.000
1759595986.534,-29.297,-0.488,24.902,-15.625,0.000
1759595986.538,-160.156,3.906,24.902,-19.531,0.000
1759595986.542,-40.527,5.859,21.973,-7.812,0.000
1759595986.546,158.203,5.371,20.508,6.348,0.000
1759595986.550,49.805,3.906,26.367,2.441,0.000
1759595986.553,-144.531,3.418,27.832,-3.906,0.000
1759595986.557,-85.449,5.859,29.297,12.207,0.000
1759595986.561,127.930,3.906,28.809,16.602,0.000
1759595986.565,104.004,5.371,25.879,-2.441,0.000
1759595986.569,-108.398,9.766,24.414,-16.602,0.000
1759595986.573,-129.883,9.277,20.996,0.000,0.000
1759595986.577,75.195,10.254,27.344,6.348,0.000
1759595986.581,149.414,10.742,31.738,5.859,0.000
1759595986.585,-62.988,13.184,31.250,7.324,0.000
1759595986.589,-147.461,10.742,35.645,0.000,0.000
1759595986.592,25.391,5.859,41.992,13.672,0.000
1759595986.596,172.852,7.324,41.016,25.391,0.000
1759595986.600,1.953,12.207,33.203,12.207,0.000
1759595986.604,-148.926,15.137,33.691,0.000,0.000
1759595986.608,-47.852,14.160,35.645,-7.812,0.000
1759595986.612,152.344,9.766,36.133,1.465,0.000
1759595986.616,65.918,2.441,35.156,3.906,0.000
1759595986.620,-136.719,1.465,35.156,0.000,0.000
1759595986.624,-104.492,3.418,36.621,-2.441,0.000
1759595986.628,114.746,2.441,38.574,4.883,0.000
1759595986.632,120.605,5.859,37.109,6.348,0.000
1759595986.635,-103.516,8.789,38.086,-1.465,0.000
1759595986.639,-144.531,6.836,40.527,-6.836,0.000
1759595986.643,52.734,15.137,40.527,3.906,0.000
1759595986.647,163.086,20.020,37.598,10.254,0.000
1759595986.651,-55.176,18.066,37.598,-15.137,0.000
1759595986.655,-172.363,17.090,41.504,-13.672,0.000
1759595986.659,-20.020,17.578,40.039,5.371,0.000
1759595986.663,157.227,15.625,38.086,6.836,0.000
1759595986.667,7.812,14.648,39.062,3.418,0.000
1759595986.671,-163.574,14.648,37.109,4.395,0.000
1759595986.675,-71.777,18.066,34.668,4.883,0.000
1759595986.678,138.184,13.184,34.180,2.930,0.000
1759595986.682,77.148,11.230,40.039,8.301,0.000
1759595986.686,-125.000,14.648,42.480,11.719,0.000
1759595986.690,-104.492,12.695,38.574,9.277,0.000
1759595986.694,107.422,18.066,41.504,15.137,0.000
1759595986.698,144.531,26.367,45.410,15.137,0.000
1759595986.702,-71.777,23.926,41.504,5.371,0.000
1759595986.706,-133.789,18.066,37.598,-2.441,0.000
1759595986.710,44.922,17.090,35.156,-6.836,0.000
1759595986.714,160.645,21.484,38.574,-3.418,0.000
1759595986.717,-33.203,24.414,43.945,-6.836,0.000
1759595986.721,-141.113,23.926,37.109,-9.277,0.000
1759595986.725,-12.695,21.973,30.762,-12.695,0.000
1759595986.729,160.156,21.484,33.691,-4.883,0.000
1759595986.733,46.387,21.973,35.156,-11.230,0.000
1759595986.737,-142.090,20.996,32.227,-10.742,0.000
1759595986.741,-87.891,15.137,32.227,-6.836,0.000
1759595986.745,134.766,3.906,37.598,1.953,0.000
1759595986.749,104.980,10.742,46.875,7.812,0.000
1759595986.753,-103.516,22.461,54.688,8.301,0.000
1759595986.757,-106.445,15.137,48.828,11.719,0.000
1759595986.760,91.309,10.742,44.922,13.672,0.000
1759595986.764,149.902,14.648,44.434,18.555,0.000
1759595986.768,-45.410,15.137,41.016,14.648,0.000
1759595986.772,-122.070,16.113,43.457,9.766,0.000
1759595986.776,50.781,20.020,46.387,16.602,0.000
1759595986.780,199.707,20.508,43.945,15.137,0.000
1759595986.784,4.395,15.625,39.551,0.977,0.000
1759595986.788,-149.902,10.254,39.062,-6.836,0.000
1759595986.792,-31.250,10.742,37.598,-1.953,0.000
1759595986.796,162.109,12.207,35.645,10.254,0.000
1759595986.799,45.898,15.625,40.527,4.395,0.000
1759595986.803,-146.973,13.672,41.992,-12.207,0.000
1759595986.807,-87.891,12.207,38.086,-10.742,0.000
1759595986.811,136.230,18.066,41.504,4.395,0.000
1759595986.815,133.301,20.996,44.434,7.324,0.000
1759595986.819,-87.891,19.043,42.969,3.906,0.000
1759595986.823,-114.258,18.555,40.039,8.789,0.000
1759595986.827,94.238,21.484,37.109,18.066,0.000
1759595986.831,185.547,26.855,35.156,18.555,0.000
1759595986.835,-32.227,28.809,40.039,20.020,0.000
1759595986.839,-131.348,24.902,41.504,26.367,0.000
1759595986.842,35.156,20.996,38.086,27.832,0.000
1759595986.846,192.871,23.926,40.039,23.438,0.000
1759595986.850,28.320,26.855,40.039,8.789,0.000
1759595986.854,-131.348,21.973,37.598,-1.465,0.000
1759595986.858,-32.715,22.461,34.668,3.418,0.000
1759595986.862,169.434,24.902,32.715,5.859,0.000
1759595986.866,79.102,22.949,36.621,3.906,0.000
1759595986.870,-116.699,20.996,36.133,-0.488,0.000
1759595986.874,-72.754,19.531,34.668,8.789,0.000
1759595986.878,128.906,24.414,36.621,31.250,0.000
1759595986.882,138.672,27.344,34.668,34.668,0.000
1759595986.885,-78.613,21.973,32.715,28.809,0.000
1759595986.889,-123.535,20.020,42.969,16.602,0.000
1759595986.893,72.754,22.949,48.828,13.184,0.000
1759595986.897,172.363,26.367,50.293,22.949,0.000
1759595986.901,-27.832,24.414,48.340,6.836,0.000
1759595986.905,-137.207,19.531,47.363,-4.395,0.000
1759595986.909,4.395,20.508,40.527,5.859,0.000
1759595986.913,170.410,23.438,31.250,20.508,0.000
1759595986.917,17.578,19.531,32.227,9.766,0.000
1759595986.921,-146.484,24.902,36.621,2.441,0.000
1759595986.924,-62.500,32.227,40.527,2.441,0.000
1759595986.928,146.484,28.809,40.039,10.742,0.000
1759595986.932,96.191,20.508,36.621,15.137,0.000
1759595986.936,-126.465,17.090,34.180,-9.277,0.000
1759595986.940,-124.512,15.625,35.156,-17.090,0.000
1759595986.944,87.891,11.719,33.203,-12.695,0.000
1759595986.948,124.512,9.766,32.227,-12.695,0.000
1759595986.952,-90.332,9.766,35.645,-14.160,0.000
1759595986.956,-150.879,17.090,40.039,-13.184,0.000
1759595986.960,27.832,18.066,40.039,-10.742,0.000
1759595986.964,151.367,18.066,42.969,-1.953,0.000
1759595986.967,-34.668,18.066,44.434,-0.977,0.000
1759595986.971,-159.180,12.207,41.016,-4.395,0.000
1759595986.975,-22.461,16.113,36.133,17.090,0.000
1759595986.979,160.156,17.578,43.457,24.414,0.000
1759595986.983,25.879,18.555,50.781,4.883,0.000
1759595986.987,-150.879,20.996,44.922,0.977,0.000
1759595986.991,-81.543,15.137,41.016,-10.742,0.000
1759595986.995,129.883,14.648,37.598,-5.859,0.000
1759595986.999,98.633,16.113,36.133,-1.465,0.000
1759595987.003,-117.188,11.719,36.133,-12.695,0.000
1759595987.007,-126.953,7.324,37.109,-5.371,0.000
1759595987.010,84.961,12.695,44.922,8.301,0.000
1759595987.014,155.762,20.508,47.363,13.672,0.000
1759595987.018,-52.734,18.555,45.898,7.324,0.000
1759595987.022,-123.535,17.578,42.480,5.859,0.000
1759595987.026,39.062,22.461,41.992,7.812,0.000
1759595987.030,180.176,22.949,40.527,12.207,0.000
1759595987.034,0.488,23.926,39.062,8.301,0.000
1759595987.038,-145.508,23.926,42.969,9.277,0.000
1759595987.042,-26.367,26.855,49.316,5.859,0.000
1759595987.046,163.086,27.344,47.363,1.465,0.000
1759595987.049,57.617,17.090,48.340,1.465,0.000
1759595987.053,-134.766,19.531,51.270,-3.906,0.000
1759595987.057,-80.566,32.227,52.246,9.766,0.000
1759595987.061,132.812,37.109,48.828,20.508,0.000
1759595987.065,116.211,32.715,48.340,19.531,0.000
1759595987.069,-94.238,32.227,56.152,10.254,0.000
1759595987.073,-115.723,38.086,59.082,6.836,0.000
1759595987.077,78.613,36.133,50.781,6.836,0.000
1759595987.081,166.016,33.691,50.781,7.812,0.000
1759595987.085,-41.016,35.156,54.199,7.324,0.000
1759595987.089,-144.531,32.227,49.805,1.953,0.000
1759595987.092,10.742,23.438,46.387,-3.906,0.000
1759595987.096,180.176,26.367,45.410,-0.488,0.000
1759595987.100,7.812,33.203,42.969,-6.348,0.000
1759595987.104,-160.156,30.273,46.387,-14.160,0.000
1759595987.108,-57.617,22.949,45.410,-6.348,0.000
1759595987.112,150.391,19.531,35.645,7.324,0.000
1759595987.116,67.871,22.461,32.227,2.441,0.000
1759595987.120,-124.512,23.926,40.039,-2.441,0.000
1759595987.124,-98.633,21.484,47.852,-4.395,0.000
1759595987.128,102.051,20.508,41.504,-7.812,0.000
1759595987.131,118.652,20.020,40.039,-0.488,0.000
1759595987.135,-97.656,21.484,37.598,-1.953,0.000
1759595987.139,-127.441,28.320,38.086,-3.418,0.000
1759595987.143,65.918,26.855,44.434,0.488,0.000
1759595987.147,162.109,23.926,43.945,4.395,0.000
1759595987.151,-33.203,26.367,48.828,-2.441,0.000
1759595987.155,-144.043,25.879,48.340,-2.930,0.000
1759595987.159,-9.766,24.902,45.410,0.488,0.000
1759595987.163,163.574,25.879,49.805,4.395,0.000
1759595987.167,29.297,25.879,51.270,7.812,0.000
1759595987.171,-131.348,22.949,44.922,11.719,0.000
1759595987.174,-49.316,21.484,41.504,13.672,0.000
1759595987.178,151.367,20.996,42.969,12.695,0.000
1759595987.182,94.727,21.973,37.598,10.254,0.000
1759595987.186,-114.746,20.996,33.691,1.953,0.000
1759595987.190,-100.586,17.578,38.086,0.977,0.000
1759595987.194,105.469,17.578,41.992,9.277,0.000
1759595987.198,126.465,18.555,45.410,19.531,0.000
1759595987.202,-86.914,15.137,36.621,17.578,0.000
1759595987.206,-145.996,11.719,33.203,8.789,0.000
1759595987.210,27.344,12.207,40.527,13.672,0.000
1759595987.213,152.832,15.137,38.086,28.320,0.000
1759595987.217,-26.855,16.113,38.574,14.648,0.000
1759595987.221,-157.227,14.648,43.945,-6.836,0.000
1759595987.225,-27.832,20.020,42.480,1.953,0.000
1759595987.229,167.480,25.879,43.945,12.695,0.000
1759595987.233,37.598,27.344,45.410,6.836,0.000
1759595987.237,-146.973,28.320,41.992,0.000,0.000
1759595987.241,-82.031,26.855,40.039,-0.488,0.000
1759595987.245,129.883,25.391,41.504,13.672,0.000
1759595987.249,108.887,26.855,42.969,16.113,0.000
1759595987.253,-110.352,31.250,41.016,3.906,0.000
1759595987.256,-126.953,31.738,38.574,-2.930,0.000
1759595987.260,84.473,26.855,33.691,4.883,0.000
1759595987.264,140.625,24.902,32.227,7.812,0.000
1759595987.268,-69.824,22.949,33.203,-8.789,0.000
1759595987.272,-143.066,24.902,36.133,-11.719,0.000
1759595987.276,23.926,29.785,35.645,-4.395,0.000
1759595987.280,171.875,28.809,32.715,-4.395,0.000
1759595987.284,-4.883,27.832,35.156,-13.672,0.000
1759595987.288,-159.180,22.949,33.203,-16.602,0.000
1759595987.292,-47.852,16.113,23.926,-26.855,0.000
1759595987.296,133.301,15.625,22.949,-19.043,0.000
1759595987.299,35.645,17.578,22.461,-15.625,0.000
1759595987.303,-147.461,18.555,25.879,-14.160,0.000
1759595987.307,-95.703,20.996,37.109,-0.488,0.000
1759595987.311,106.445,27.832,40.527,-9.766,0.000
1759595987.315,96.191,25.879,38.086,-13.184,0.000
1759595987.319,-108.398,21.973,40.039,-8.301,0.000
1759595987.323,-135.254,19.531,38.086,-13.672,0.000
1759595987.327,58.594,19.531,35.645,-2.930,0.000
1759595987.331,149.902,22.949,38.086,9.766,0.000
1759595987.335,-54.199,16.113,38.574,-1.953,0.000
1759595987.338,-153.809,13.184,38.574,-14.160,0.000
1759595987.342,5.371,12.695,35.156,-0.977,0.000
1759595987.346,167.969,9.766,33.203,12.695,0.000
1759595987.350,0.488,8.301,36.133,11.230,0.000
1759595987.354,-167.480,9.277,38.574,-1.953,0.000
1759595987.358,-68.359,16.602,39.062,-8.789,0.000
1759595987.362,143.555,17.090,38.574,-1.465,0.000
1759595987.366,77.148,19.531,37.109,-7.812,0.000
1759595987.370,-121.094,23.438,41.992,-3.906,0.000
1759595987.374,-108.398,17.578,41.992,-3.418,0.000
1759595987.378,105.469,17.578,31.250,0.000,0.000
1759595987.381,134.277,19.531,32.715,0.977,0.000
1759595987.385,-92.773,18.066,39.062,-6.348,0.000
1759595987.389,-146.484,13.184,40.527,-9.277,0.000
1759595987.393,44.922,7.324,40.039,-6.836,0.000
1759595987.397,157.227,7.324,35.645,14.648,0.000
1759595987.401,-41.504,8.789,36.133,4.395,0.000
1759595987.405,-155.273,7.812,32.227,-9.277,0.000
1759595987.409,-15.625,12.695,33.203,-1.953,0.000
1759595987.413,159.668,14.648,41.016,6.836,0.000
1759595987.417,27.344,16.113,38.574,3.418,0.000
1759595987.421,-137.695,15.137,35.645,-1.953,0.000
1759595987.424,-59.570,17.578,36.133,-2.441,0.000
1759595987.428,153.809,24.414,37.109,16.113,0.000
1759595987.432,105.957,21.973,41.992,24.902,0.000
1759595987.436,-108.887,15.625,44.434,5.859,0.000
1759595987.440,-97.656,13.672,42.969,5.859,0.000
1759595987.444,114.746,15.625,45.898,31.250,0.000
1759595987.448,154.785,21.973,48.340,24.902,0.000
1759595987.452,-70.312,20.020,48.340,6.348,0.000
1759595987.456,-138.184,15.137,50.781,3.906,0.000
1759595987.460,40.039,11.719,52.246,6.348,0.000
1759595987.463,167.969,19.043,55.176,5.859,0.000
1759595987.467,-13.184,20.020,53.223,-4.395,0.000
1759595987.471,-139.648,12.207,41.992,-10.254,0.000
1759595987.475,-12.695,14.648,41.016,-0.977,0.000
1759595987.479,161.133,11.230,45.410,6.836,0.000
1759595987.483,36.133,4.395,38.574,-2.930,0.000
1759595987.487,-132.324,5.371,38.086,3.906,0.000
1759595987.491,-63.477,11.719,45.410,4.395,0.000
1759595987.495,146.973,16.602,48.340,-1.465,0.000
1759595987.499,128.906,19.531,47.852,9.766,0.000
1759595987.503,-87.891,16.113,46.875,5.859,0.000
1759595987.506,-116.211,14.648,43.457,-2.930,0.000
1759595987.510,82.031,18.066,41.504,2.930,0.000
1759595987.514,148.926,15.625,41.992,12.207,0.000
1759595987.518,-64.453,16.602,43.945,6.836,0.000
1759595987.522,-149.902,20.020,45.898,-7.324,0.000
1759595987.526,12.207,22.949,40.527,-9.766,0.000
1759595987.530,163.086,28.320,35.645,0.488,0.000
1759595987.534,0.977,29.785,41.992,-5.371,0.000
1759595987.538,-149.414,26.855,41.504,-9.766,0.000
1759595987.542,-42.480,21.484,36.133,-11.230,0.000
1759595987.545,163.574,19.043,31.250,4.883,0.000
1759595987.549,60.547,18.555,29.297,1.465,0.000
1759595987.553,-137.695,17.090,34.668,-9.766,0.000
1759595987.557,-86.426,17.090,36.133,1.953,0.000
1759595987.561,125.488,24.902,37.598,12.695,0.000
1759595987.565,123.047,29.785,42.480,13.184,0.000
1759595987.569,-99.609,25.879,39.062,7.324,0.000
1759595987.573,-125.977,25.391,34.668,9.277,0.000
1759595987.577,71.777,22.949,37.598,16.113,0.000
1759595987.581,154.297,20.020,39.062,13.672,0.000
1759595987.585,-58.105,18.066,32.715,2.930,0.000
1759595987.588,-162.109,15.137,25.879,-6.348,0.000
1759595987.592,-5.859,19.531,23.926,-6.348,0.000
1759595987.596,149.414,19.531,18.066,-20.508,0.000
1759595987.600,-4.883,16.113,14.648,-28.809,0.000
1759595987.604,-163.086,19.531,22.461,-17.578,0.000
1759595987.608,-75.684,20.508,32.715,-17.578,0.000
1759595987.612,132.324,18.066,34.180,-5.859,0.000
1759595987.616,76.172,14.648,31.738,-3.418,0.000
1759595987.620,-132.324,10.254,25.879,-6.348,0.000
1759595987.624,-108.887,13.672,24.902,-4.883,0.000
1759595987.628,97.656,13.184,25.391,-10.254,0.000
1759595987.631,114.746,10.742,22.461,-11.719,0.000
1759595987.635,-89.844,9.766,21.484,0.977,0.000
1759595987.639,-144.043,7.812,23.438,-12.207,0.000
1759595987.643,34.668,11.230,22.461,-21.973,0.000
1759595987.647,149.414,19.043,17.090,-10.742,0.000
1759595987.651,-42.480,16.113,12.207,-14.648,0.000
1759595987.655,-159.180,15.137,14.160,-22.949,0.000
1759595987.659,-30.762,15.625,20.020,-14.648,0.000
1759595987.663,144.043,12.207,19.531,0.977,0.000
1759595987.667,12.695,12.695,16.602,-2.441,0.000
1759595987.670,-157.227,13.672,26.367,-5.371,0.000
1759595987.674,-87.402,13.672,36.621,-0.488,0.000
1759595987.678,125.488,13.184,34.180,4.883,0.000
1759595987.682,83.984,16.602,27.832,2.441,0.000
1759595987.686,-136.719,19.043,25.879,-14.160,0.000
1759595987.690,-129.883,18.555,27.832,-19.043,0.000
1759595987.694,78.613,17.090,26.855,-10.254,0.000
1759595987.698,131.348,17.578,22.949,-3.418,0.000
1759595987.702,-76.172,15.625,20.996,-19.531,0.000
1759595987.706,-164.062,6.836,25.879,-36.621,0.000
1759595987.710,-0.977,5.371,23.438,-31.250,0.000
1759595987.713,159.180,8.301,20.508,-15.137,0.000
1759595987.717,-20.996,5.859,25.879,-16.602,0.000
1759595987.721,-193.848,0.488,26.855,-36.621,0.000
1759595987.725,-73.242,-6.348,21.973,-28.809,0.000
1759595987.729,128.906,-3.906,22.461,-10.742,0.000
1759595987.733,15.625,5.371,32.715,-19.531,0.000
1759595987.737,-162.598,9.766,33.691,-18.555,0.000
1759595987.741,-101.074,10.254,27.832,-25.879,0.000
1759595987.745,104.492,4.883,25.879,-19.531,0.000
1759595987.749,71.777,0.000,29.785,-10.742,0.000
1759595987.752,-136.719,4.883,34.180,-9.277,0.000
1759595987.756,-142.578,6.348,38.086,0.000,0.000
1759595987.760,63.477,3.418,38.086,0.977,0.000
1759595987.764,128.906,1.953,31.250,-0.977,0.000
1759595987.768,-81.055,3.906,30.273,-15.625,0.000
1759595987.772,-158.203,2.441,31.250,-12.695,0.000
1759595987.776,7.812,-1.465,30.273,-16.113,0.000
1759595987.780,175.781,4.883,26.855,-18.066,0.000
1759595987.784,11.230,13.184,32.715,-6.836,0.000
1759595987.788,-150.391,10.254,40.527,-8.789,0.000
1759595987.792,-44.434,6.348,32.715,-11.719,0.000
1759595987.795,159.668,10.254,25.391,4.883,0.000
1759595987.799,71.289,12.207,32.715,1.953,0.000
1759595987.803,-121.582,14.160,42.480,-0.488,0.000
1759595987.807,-73.730,13.184,44.922,5.371,0.000
1759595987.811,138.184,9.766,43.945,7.324,0.000
1759595987.815,132.812,7.812,38.574,4.395,0.000
1759595987.819,-88.379,7.812,34.180,-1.465,0.000
1759595987.823,-127.930,6.348,37.598,-13.184,0.000
1759595987.827,73.242,2.930,36.133,-11.719,0.000
1759595987.831,174.805,7.324,35.156,15.137,0.000
1759595987.834,-39.062,8.301,38.574,0.000,0.000
1759595987.838,-145.996,7.324,41.504,-8.789,0.000
1759595987.842,7.324,5.859,43.945,4.395,0.000
1759595987.846,177.734,7.812,42.480,16.602,0.000
1759595987.850,26.367,7.812,38.086,2.930,0.000
1759595987.854,-145.996,3.418,37.598,-12.695,0.000
1759595987.858,-52.246,7.324,40.039,-4.883,0.000
1759595987.862,158.203,10.254,39.062,8.789,0.000
1759595987.866,81.055,13.184,40.527,-1.953,0.000
1759595987.870,-124.023,13.672,41.992,-19.043,0.000
1759595987.874,-89.844,13.184,41.992,-10.742,0.000
1759595987.877,121.094,12.695,39.551,2.930,0.000
1759595987.881,144.043,14.648,38.086,5.859,0.000
1759595987.885,-69.824,17.578,41.504,-3.418,0.000
1759595987.889,-117.188,15.625,43.457,-0.488,0.000
1759595987.893,73.730,17.578,48.828,24.414,0.000
1759595987.897,177.246,22.461,52.246,33.203,0.000
1759595987.901,-12.207,19.043,50.293,15.137,0.000
1759595987.905,-128.906,10.742,43.945,8.789,0.000
1759595987.909,-12.207,12.695,41.016,7.324,0.000
1759595987.913,167.969,18.555,44.922,7.324,0.000
1759595987.917,44.922,18.555,47.363,4.395,0.000
1759595987.920,-123.535,17.578,42.480,7.324,0.000
1759595987.924,-58.594,19.043,42.480,7.812,0.000
1759595987.928,140.137,19.531,42.969,-1.465,0.000
1759595987.932,92.773,20.508,35.645,1.465,0.000
1759595987.936,-110.352,19.531,40.039,7.324,0.000
1759595987.940,-105.957,19.531,44.922,-2.441,0.000
1759595987.944,90.332,12.695,33.203,1.465,0.000
1759595987.948,133.789,10.742,23.926,10.254,0.000
1759595987.952,-80.078,10.254,36.621,2.930,0.000
1759595987.956,-145.020,2.930,41.992,-15.625,0.000
1759595987.959,27.832,8.789,37.598,-14.160,0.000
1759595987.963,154.297,14.648,40.039,7.812,0.000
1759595987.967,-28.320,5.859,35.645,5.371,0.000
1759595987.971,-161.133,3.418,35.156,-10.254,0.000
1759595987.975,-31.250,5.371,33.691,-5.859,0.000
1759595987.979,160.156,5.859,28.809,5.859,0.000
1759595987.983,45.410,4.395,33.203,2.441,0.000
1759595987.987,-134.277,6.348,37.109,-3.906,0.000
1759595987.991,-80.566,4.395,39.062,2.930,0.000
1759595987.995,123.535,5.371,40.527,9.277,0.000
1759595987.999,101.074,13.184,41.504,10.254,0.000
1759595988.002,-96.191,15.137,41.016,8.789,0.000
1759595988.006,-108.398,12.695,33.203,-0.977,0.000
1759595988.010,86.426,14.648,28.320,8.789,0.000
1759595988.014,166.504,20.020,38.574,17.090,0.000
1759595988.018,-43.945,22.949,40.039,6.836,0.000
1759595988.022,-133.301,18.555,41.016,10.254,0.000
1759595988.026,27.832,15.625,51.758,17.578,0.000
1759595988.030,182.617,25.879,54.688,11.719,0.000
1759595988.034,6.348,28.320,49.316,1.953,0.000
1759595988.038,-150.879,23.438,48.828,-1.465,0.000
1759595988.042,-29.297,23.926,52.734,1.953,0.000
1759595988.045,172.363,23.438,51.758,12.695,0.000
1759595988.049,78.125,20.996,45.410,3.906,0.000
1759595988.053,-111.816,20.996,45.410,-0.977,0.000
1759595988.057,-72.266,20.508,43.945,12.207,0.000
1759595988.061,125.977,24.902,45.898,18.555,0.000
1759595988.065,126.465,20.508,45.898,8.301,0.000
1759595988.069,-78.613,23.438,45.898,-8.301,0.000
1759595988.073,-116.211,27.344,45.898,-12.695,0.000
1759595988.077,77.637,29.297,44.434,-2.441,0.000
1759595988.081,178.223,30.762,44.922,3.418,0.000
1759595988.084,-18.066,31.250,49.805,-4.395,0.000
1759595988.088,-131.348,28.809,49.805,-4.395,0.000
1759595988.092,-2.441,21.973,41.992,4.883,0.000
1759595988.096,169.922,24.902,37.598,9.766,0.000
1759595988.100,28.809,30.273,36.621,16.602,0.000
1759595988.104,-132.812,24.902,42.969,8.789,0.000
1759595988.108,-40.527,21.973,48.828,-9.766,0.000
1759595988.112,163.574,27.344,50.293,5.371,0.000
1759595988.116,98.633,28.320,43.945,19.531,0.000
1759595988.120,-104.980,26.367,40.039,14.648,0.000
1759595988.124,-86.426,24.902,41.992,5.859,0.000
1759595988.127,139.160,30.273,43.457,23.926,0.000
1759595988.131,162.598,24.414,40.039,21.973,0.000
1759595988.135,-67.383,19.531,43.945,6.836,0.000
1759595988.139,-108.887,22.949,53.223,14.160,0.000
1759595988.143,73.730,26.367,50.293,25.391,0.000
1759595988.147,188.965,34.180,41.992,39.551,0.000
1759595988.151,-12.695,29.785,40.527,21.484,0.000
1759595988.155,-145.020,23.926,43.457,4.883,0.000
1759595988.159,-7.812,25.391,47.363,11.230,0.000
1759595988.163,171.387,23.438,43.457,5.859,0.000
1759595988.167,33.691,15.137,36.133,-9.766,0.000
1759595988.170,-143.555,13.672,41.504,-6.348,0.000
1759595988.174,-74.219,11.230,36.621,-4.883,0.000
1759595988.178,137.695,9.277,31.250,0.977,0.000
1759595988.182,100.586,17.090,37.109,11.719,0.000
1759595988.186,-105.957,20.996,38.574,11.230,0.000
1759595988.190,-96.191,18.066,37.109,10.742,0.000
1759595988.194,116.211,17.090,36.621,20.508,0.000
1759595988.198,150.879,15.625,37.598,21.484,0.000
1759595988.202,-68.848,17.090,38.574,10.254,0.000
1759595988.206,-129.395,14.160,37.109,4.883,0.000
1759595988.209,46.875,13.672,41.016,11.230,0.000
1759595988.213,186.035,19.043,35.645,10.254,0.000
1759595988.217,12.207,22.461,36.133,1.953,0.000
1759595988.221,-136.719,16.113,41.504,2.930,0.000
1759595988.225,-12.695,14.648,37.598,12.207,0.000
1759595988.229,182.129,20.508,36.621,19.043,0.000
1759595988.233,68.848,21.973,33.203,16.602,0.000
1759595988.237,-123.535,23.438,35.156,7.812,0.000
1759595988.241,-72.754,24.902,37.598,0.488,0.000
1759595988.245,145.508,23.926,38.574,13.184,0.000
1759595988.249,142.090,27.344,41.504,21.973,0.000
1759595988.252,-74.707,24.902,40.527,17.090,0.000
1759595988.256,-104.004,27.832,42.480,10.742,0.000
1759595988.260,96.191,28.320,39.062,10.742,0.000
1759595988.264,170.898,18.066,38.086,9.766,0.000
1759595988.268,-41.992,13.184,48.828,6.348,0.000
1759595988.272,-133.301,19.043,53.223,1.953,0.000
1759595988.276,31.738,20.996,49.316,0.000,0.000
1759595988.280,184.570,17.578,45.898,12.695,0.000
1759595988.284,20.996,21.484,46.875,11.230,0.000
1759595988.288,-136.719,24.902,46.387,-4.395,0.000
1759595988.291,-39.062,27.344,44.434,-6.836,0.000
1759595988.295,173.828,30.762,49.316,9.766,0.000
1759595988.299,94.727,32.227,51.270,14.160,0.000
1759595988.303,-110.352,32.715,49.805,1.465,0.000
1759595988.307,-79.590,30.273,49.805,-9.277,0.000
1759595988.311,133.789,27.344,41.992,3.418,0.000
1759595988.315,143.555,24.414,36.621,2.441,0.000
1759595988.319,-81.055,22.949,41.992,-13.672,0.000
1759595988.323,-104.004,28.809,46.387,-9.766,0.000
1759595988.327,78.613,31.250,44.922,0.000,0.000
1759595988.331,160.156,26.367,48.340,0.488,0.000
1759595988.334,-38.574,28.320,49.805,-15.137,0.000
1759595988.338,-142.090,29.785,42.969,-15.137,0.000
1759595988.342,13.672,20.996,39.551,1.953,0.000
1759595988.346,175.781,21.973,42.480,5.371,0.000
1759595988.350,26.367,24.414,45.898,-2.441,0.000
1759595988.354,-131.348,20.508,48.340,4.395,0.000
1759595988.358,-40.527,21.484,48.828,12.207,0.000
1759595988.362,157.715,24.414,49.805,12.207,0.000
1759595988.366,88.867,25.391,47.363,7.812,0.000
1759595988.370,-118.652,18.066,44.922,-5.371,0.000
1759595988.374,-107.422,15.625,45.410,-8.301,0.000
1759595988.377,96.680,20.508,48.340,2.930,0.000
1759595988.381,132.324,20.996,51.758,3.906,0.000
1759595988.385,-73.730,17.578,48.828,1.465,0.000
1759595988.389,-134.277,21.484,50.293,-0.977,0.000
1759595988.393,44.922,25.879,49.805,7.324,0.000
1759595988.397,175.293,30.273,48.828,18.555,0.000
