timestamps,TP9,AF7,AF8,TP10,Right AUX
1759592827.014,125.977,-38.086,-27.344,-27.832,0.000
1759592827.017,-142.578,-41.504,-25.391,-40.527,0.000
1759592827.021,-186.035,-38.574,-33.691,-38.574,0.000
1759592827.025,41.016,-38.086,-28.809,-30.273,0.000
1759592827.029,154.785,-42.969,-25.879,-34.180,0.000
1759592827.033,-82.031,-39.062,-34.180,-29.297,0.000
1759592827.037,-218.262,-39.551,-39.062,-23.926,0.000
1759592827.041,-41.992,-39.551,-35.156,-27.832,0.000
1759592827.045,166.016,-31.250,-26.855,-26.367,0.000
1759592827.049,-1.953,-32.227,-25.879,-23.926,0.000
1759592827.053,-221.191,-40.039,-26.855,-35.156,0.000
1759592827.056,-111.816,-39.062,-25.391,-32.715,0.000
1759592827.060,146.484,-34.668,-28.320,-31.250,0.000
1759592827.064,62.500,-39.062,-33.691,-33.203,0.000
1759592827.068,-184.570,-38.086,-34.180,-23.926,0.000
1759592827.072,-163.574,-33.691,-25.391,-20.996,0.000
1759592827.076,87.402,-30.762,-24.414,-23.926,0.000
1759592827.080,128.418,-30.762,-36.621,-23.926,0.000
1759592827.084,-138.672,-40.039,-37.598,-20.996,0.000
1759592827.088,-206.055,-42.969,-26.855,-29.785,0.000
1759592827.092,19.043,-37.109,-27.344,-36.133,0.000
1759592827.096,162.109,-29.785,-30.273,-24.414,0.000
1759592827.099,-68.359,-33.691,-28.320,-21.484,0.000
1759592827.103,-216.797,-42.969,-31.738,-32.715,0.000
1759592827.107,-42.969,-45.898,-31.738,-31.250,0.000
1759592827.111,172.852,-40.527,-30.273,-27.344,0.000
1759592827.115,8.789,-37.109,-29.297,-24.902,0.000
1759592827.119,-212.891,-37.109,-25.879,-30.762,0.000
1759592827.123,-114.746,-32.715,-28.320,-33.203,0.000
1759592827.127,144.043,-39.062,-29.785,-24.902,0.000
1759592827.131,87.402,-41.992,-27.832,-23.926,0.000
1759592827.135,-173.340,-38.574,-28.320,-28.320,0.000
1759592827.139,-169.434,-37.109,-33.691,-33.691,0.000
1759592827.142,80.566,-36.621,-37.109,-24.902,0.000
1759592827.146,143.066,-40.527,-32.227,-23.438,0.000
1759592827.150,-118.164,-37.598,-30.273,-36.621,0.000
1759592827.154,-202.148,-35.645,-37.598,-29.297,0.000
1759592827.158,9.277,-37.598,-42.480,-26.855,0.000
1759592827.162,171.875,-33.691,-36.133,-24.902,0.000
1759592827.166,-46.875,-33.691,-35.156,-20.020,0.000
1759592827.170,-214.355,-37.109,-40.039,-17.578,0.000
1759592827.174,-57.129,-38.086,-39.062,-18.066,0.000
1759592827.178,167.480,-34.668,-37.598,-16.602,0.000
1759592827.181,35.156,-33.691,-30.273,-11.230,0.000
1759592827.185,-194.824,-31.250,-36.133,-8.301,0.000
1759592827.189,-122.070,-28.320,-41.504,-8.301,0.000
1759592827.193,128.418,-33.203,-28.320,-21.973,0.000
1759592827.197,93.750,-36.133,-26.367,-30.273,0.000
1759592827.201,-166.992,-29.785,-30.273,-24.414,0.000
1759592827.205,-180.176,-28.320,-36.133,-22.949,0.000
1759592827.209,61.035,-30.762,-35.645,-23.926,0.000
1759592827.213,152.344,-34.180,-28.809,-22.949,0.000
1759592827.217,-91.797,-35.645,-25.879,-21.973,0.000
1759592827.221,-205.566,-37.598,-25.391,-22.461,0.000
1759592827.224,-19.531,-41.016,-20.020,-17.578,0.000
1759592827.228,161.133,-36.133,-18.555,-16.602,0.000
1759592827.232,-34.668,-37.109,-35.645,-20.508,0.000
1759592827.236,-212.402,-38.574,-32.715,-21.484,0.000
1759592827.240,-75.684,-36.621,-24.414,-24.902,0.000
1759592827.244,157.227,-40.527,-35.645,-24.414,0.000
1759592827.248,54.199,-40.039,-28.809,-15.625,0.000
1759592827.252,-182.617,-35.156,-19.531,-13.672,0.000
1759592827.256,-139.648,-30.762,-28.809,-14.160,0.000
1759592827.260,112.305,-38.574,-37.109,-19.043,0.000
1759592827.264,117.188,-46.387,-35.156,-24.902,0.000
1759592827.267,-146.484,-42.969,-34.668,-19.043,0.000
1759592827.271,-194.824,-45.898,-35.645,-27.344,0.000
1759592827.275,38.574,-50.293,-38.574,-29.785,0.000
1759592827.279,149.902,-46.875,-40.039,-22.461,0.000
1759592827.283,-98.145,-46.875,-33.203,-31.738,0.000
1759592827.287,-220.215,-46.387,-34.180,-29.297,0.000
1759592827.291,-37.109,-43.457,-29.785,-23.926,0.000
1759592827.295,169.434,-37.109,-22.949,-21.484,0.000
1759592827.299,-1.465,-40.039,-25.879,-22.461,0.000
1759592827.303,-209.473,-43.945,-29.297,-34.668,0.000
1759592827.306,-91.309,-45.410,-32.227,-37.109,0.000
1759592827.310,142.090,-49.805,-31.738,-28.320,0.000
1759592827.314,53.223,-47.363,-26.367,-24.414,0.000
1759592827.318,-184.570,-44.922,-29.785,-27.344,0.000
1759592827.322,-155.762,-42.969,-39.062,-17.578,0.000
1759592827.326,82.031,-41.016,-37.109,-20.996,0.000
1759592827.330,101.074,-39.062,-34.180,-31.738,0.000
1759592827.334,-142.090,-40.039,-36.133,-23.926,0.000
1759592827.338,-194.824,-41.504,-37.109,-29.785,0.000
1759592827.342,40.039,-43.457,-48.828,-22.949,0.000
1759592827.346,175.293,-42.969,-46.387,-10.742,0.000
1759592827.349,-61.523,-41.016,-32.227,-12.207,0.000
1759592827.353,-201.172,-42.480,-24.414,-6.836,0.000
1759592827.357,-31.738,-45.898,-20.508,2.441,0.000
1759592827.361,184.082,-53.711,-14.160,8.301,0.000
1759592827.365,40.039,-59.082,-14.160,20.020,0.000
1759592827.369,-182.129,-56.152,-14.160,27.832,0.000
1759592827.373,-89.355,-50.781,-1.953,20.996,0.000
1759592827.377,171.387,-51.270,-2.441,21.484,0.000
1759592827.381,123.535,-55.176,-6.836,26.855,0.000
1759592827.385,-128.418,-54.688,-9.277,26.855,0.000
1759592827.389,-126.953,-53.711,-17.578,28.809,0.000
1759592827.392,117.676,-56.152,-19.531,35.156,0.000
1759592827.396,171.387,-55.664,-12.695,36.133,0.000
1759592827.400,-85.449,-51.270,-8.789,29.785,0.000
1759592827.404,-165.527,-52.246,-13.672,20.996,0.000
1759592827.408,39.551,-57.617,-19.531,17.578,0.000
1759592827.412,194.824,-61.523,-25.879,20.020,0.000
1759592827.416,-20.508,-57.129,-20.020,24.414,0.000
1759592827.420,-189.453,-52.246,-12.207,18.555,0.000
1759592827.424,-41.504,-54.688,-19.531,11.230,0.000
1759592827.428,191.406,-55.664,-19.531,8.789,0.000
1759592827.431,49.316,-53.711,-18.555,12.695,0.000
1759592827.435,-183.594,-48.340,-17.578,12.207,0.000
1759592827.439,-107.910,-45.410,-17.578,0.488,0.000
1759592827.443,141.113,-51.270,-24.902,-0.977,0.000
1759592827.447,114.746,-48.828,-28.320,-0.488,0.000
1759592827.451,-144.531,-45.898,-26.367,-4.883,0.000
1759592827.455,-161.621,-44.922,-27.832,-2.441,0.000
1759592827.459,87.402,-39.062,-23.438,5.371,0.000
1759592827.463,175.781,-37.598,-13.184,3.906,0.000
1759592827.467,-78.613,-40.039,-13.672,0.000,0.000
1759592827.471,-183.594,-40.527,-21.484,3.418,0.000
1759592827.474,7.812,-44.434,-20.996,1.465,0.000
1759592827.478,191.406,-42.480,-15.625,-0.977,0.000
1759592827.482,-1.953,-38.086,-15.625,0.000,0.000
1759592827.486,-196.777,-40.039,-16.113,-5.859,0.000
1759592827.490,-64.453,-40.039,-18.066,-12.695,0.000
1759592827.494,170.898,-46.875,-21.484,-14.160,0.000
1759592827.498,52.246,-52.246,-27.832,-16.602,0.000
1759592827.502,-183.105,-43.457,-25.879,-19.531,0.000
1759592827.506,-137.695,-42.480,-22.461,-17.090,0.000
1759592827.510,104.980,-42.969,-21.484,-21.973,0.000
1759592827.514,105.957,-44.922,-23.926,-29.785,0.000
1759592827.517,-154.785,-49.316,-31.738,-25.879,0.000
1759592827.521,-189.941,-55.664,-34.668,-22.949,0.000
1759592827.525,40.039,-58.105,-34.180,-23.926,0.000
1759592827.529,153.320,-51.270,-35.645,-25.879,0.000
1759592827.533,-89.355,-50.781,-34.668,-27.832,0.000
1759592827.537,-212.891,-51.270,-29.785,-26.367,0.000
1759592827.541,-24.902,-46.875,-32.227,-27.344,0.000
1759592827.545,158.691,-44.434,-39.062,-22.461,0.000
1759592827.549,-17.090,-43.457,-40.039,-20.996,0.000
1759592827.553,-200.195,-39.551,-28.320,-19.043,0.000
1759592827.556,-93.262,-39.551,-23.438,-22.949,0.000
1759592827.560,138.184,-42.480,-31.250,-21.484,0.000
1759592827.564,53.711,-39.551,-30.762,-16.113,0.000
1759592827.568,-191.895,-37.598,-20.020,-21.973,0.000
1759592827.572,-159.668,-44.922,-21.973,-27.344,0.000
1759592827.576,93.262,-42.480,-30.762,-26.855,0.000
1759592827.580,127.930,-42.480,-28.809,-21.973,0.000
1759592827.584,-127.441,-44.434,-22.461,-21.484,0.000
1759592827.588,-187.500,-29.785,-23.438,-22.949,0.000
1759592827.592,30.273,-24.902,-28.809,-22.461,0.000
1759592827.596,168.457,-33.691,-30.273,-17.090,0.000
1759592827.599,-49.805,-37.109,-26.855,-15.137,0.000
1759592827.603,-203.613,-39.551,-31.250,-24.902,0.000
1759592827.607,-46.387,-48.340,-44.922,-24.414,0.000
1759592827.611,173.828,-47.363,-37.598,-19.531,0.000
1759592827.615,19.531,-38.574,-28.809,-20.508,0.000
1759592827.619,-194.824,-37.109,-33.691,-20.020,0.000
1759592827.623,-103.516,-34.180,-30.273,-21.484,0.000
1759592827.627,141.113,-30.762,-21.973,-15.625,0.000
1759592827.631,95.215,-41.992,-17.090,-3.418,0.000
1759592827.635,-158.203,-48.340,-26.367,-2.930,0.000
1759592827.639,-169.922,-34.180,-38.574,-21.484,0.000
1759592827.642,68.848,-29.297,-38.574,-31.250,0.000
1759592827.646,118.164,-33.203,-38.086,-40.527,0.000
1759592827.650,-145.508,-36.621,-42.480,-42.969,0.000
1759592827.654,-213.867,-38.574,-40.527,-33.691,0.000
1759592827.658,-0.488,-41.504,-33.203,-33.203,0.000
1759592827.662,157.227,-47.852,-36.621,-26.855,0.000
1759592827.666,-63.477,-45.410,-41.016,-20.996,0.000
1759592827.670,-210.449,-42.480,-37.109,-20.508,0.000
1759592827.674,-38.086,-45.410,-32.715,-17.090,0.000
1759592827.678,161.133,-46.875,-36.621,-12.207,0.000
1759592827.681,29.297,-47.363,-34.668,-13.672,0.000
1759592827.685,-190.430,-46.387,-26.367,-17.578,0.000
1759592827.689,-128.906,-50.293,-31.738,-22.461,0.000
1759592827.693,119.141,-51.270,-32.227,-24.414,0.000
1759592827.697,87.891,-44.434,-33.203,-11.719,0.000
1759592827.701,-171.875,-43.457,-32.715,-8.789,0.000
1759592827.705,-186.035,-43.945,-30.273,-24.414,0.000
1759592827.709,53.711,-48.340,-44.434,-31.738,0.000
1759592827.713,141.113,-46.387,-41.992,-30.762,0.000
1759592827.717,-110.352,-42.969,-29.785,-28.320,0.000
1759592827.721,-219.238,-48.340,-34.180,-38.574,0.000
1759592827.724,-22.949,-49.805,-45.898,-43.457,0.000
1759592827.728,163.574,-45.898,-43.945,-36.133,0.000
1759592827.732,-35.645,-45.410,-38.086,-36.133,0.000
1759592827.736,-221.191,-51.270,-38.086,-36.133,0.000
1759592827.740,-71.777,-54.199,-39.062,-16.602,0.000
1759592827.744,170.898,-47.852,-39.551,-12.207,0.000
1759592827.748,35.156,-45.410,-35.156,-41.016,0.000
1759592827.752,-215.820,-50.293,-37.109,-58.105,0.000
1759592827.756,-177.734,-47.363,-45.410,-72.266,0.000
1759592827.760,68.359,-41.504,-42.480,-74.707,0.000
1759592827.764,72.266,-33.691,-35.156,-84.473,0.000
1759592827.767,-210.938,-31.738,-38.086,-105.957,0.000
1759592827.771,-269.531,-30.273,-40.039,-112.305,0.000
1759592827.775,-35.645,-34.180,-37.109,-115.234,0.000
1759592827.779,66.406,-35.645,-40.527,-127.441,0.000
1759592827.783,-178.223,-33.203,-48.340,-122.559,0.000
1759592827.787,-288.086,-34.668,-51.758,-110.352,0.000
1759592827.791,-97.656,-33.691,-43.457,-106.934,0.000
1759592827.795,103.516,-32.715,-37.109,-104.004,0.000
1759592827.799,-61.035,-34.180,-41.504,-85.938,0.000
1759592827.803,-249.023,-31.250,-41.016,-72.266,0.000
1759592827.806,-128.906,-33.691,-36.133,-75.684,0.000
1759592827.810,116.699,-39.062,-38.086,-72.754,0.000
1759592827.814,29.297,-31.738,-43.457,-68.848,0.000
1759592827.818,-221.191,-33.203,-43.457,-60.059,0.000
1759592827.822,-164.062,-41.016,-41.992,-52.246,0.000
1759592827.826,101.074,-35.645,-43.945,-59.570,0.000
1759592827.830,111.816,-36.133,-49.805,-53.223,0.000
1759592827.834,-142.578,-37.109,-49.805,-44.922,0.000
1759592827.838,-202.637,-38.574,-44.922,-53.711,0.000
1759592827.842,22.949,-36.621,-44.922,-52.246,0.000
1759592827.846,155.762,-32.715,-53.711,-43.457,0.000
1759592827.849,-75.195,-34.668,-54.199,-39.551,0.000
1759592827.853,-212.402,-32.227,-39.551,-37.109,0.000
1759592827.857,-50.293,-35.645,-39.062,-40.039,0.000
1759592827.861,166.504,-32.715,-39.062,-39.062,0.000
1759592827.865,8.789,-29.785,-34.668,-33.691,0.000
1759592827.869,-221.680,-35.156,-42.969,-40.039,0.000
1759592827.873,-129.883,-35.645,-48.828,-48.340,0.000
1759592827.877,121.094,-39.551,-47.852,-51.758,0.000
1759592827.881,70.312,-43.457,-41.992,-46.875,0.000
1759592827.885,-183.105,-41.016,-37.598,-40.527,0.000
1759592827.889,-179.688,-39.062,-43.945,-38.574,0.000
1759592827.892,70.312,-39.062,-48.340,-35.156,0.000
1759592827.896,130.859,-33.691,-37.598,-33.691,0.000
1759592827.900,-123.047,-33.691,-34.668,-37.598,0.000
1759592827.904,-201.172,-36.621,-43.945,-37.598,0.000
1759592827.908,7.324,-37.598,-45.410,-32.715,0.000
1759592827.912,164.062,-31.738,-40.039,-28.809,0.000
1759592827.916,-44.434,-29.785,-34.668,-33.691,0.000
1759592827.920,-210.449,-41.016,-41.016,-40.527,0.000
1759592827.924,-63.477,-43.945,-43.945,-41.016,0.000
1759592827.928,166.016,-39.062,-31.738,-37.598,0.000
1759592827.931,24.414,-44.922,-27.344,-35.645,0.000
1759592827.935,-211.426,-49.316,-35.645,-27.344,0.000
1759592827.939,-140.137,-38.574,-43.457,-22.949,0.000
1759592827.943,112.305,-37.598,-37.109,-36.133,0.000
1759592827.947,83.008,-42.969,-38.574,-35.645,0.000
1759592827.951,-174.805,-38.574,-44.434,-28.320,0.000
1759592827.955,-190.430,-33.691,-36.621,-36.621,0.000
1759592827.959,48.828,-38.086,-31.250,-36.621,0.000
1759592827.963,130.859,-37.109,-35.156,-34.668,0.000
1759592827.967,-116.211,-37.109,-30.762,-30.762,0.000
1759592827.971,-207.031,-39.062,-25.879,-18.066,0.000
1759592827.974,-8.789,-41.504,-30.273,-22.949,0.000
1759592827.978,160.645,-44.434,-34.180,-32.227,0.000
1759592827.982,-36.621,-45.898,-43.457,-26.855,0.000
1759592827.986,-216.797,-44.434,-35.645,-22.949,0.000
1759592827.990,-81.543,-38.574,-20.020,-22.949,0.000
1759592827.994,157.227,-37.109,-26.855,-21.484,0.000
1759592827.998,45.410,-40.039,-27.344,-21.973,0.000
1759592828.002,-200.684,-45.898,-23.438,-18.066,0.000
1759592828.006,-148.926,-41.016,-21.973,-19.531,0.000
1759592828.010,107.910,-33.203,-22.949,-22.461,0.000
1759592828.014,106.445,-35.156,-30.273,-23.438,0.000
1759592828.017,-151.367,-36.133,-26.367,-20.996,0.000
1759592828.021,-182.617,-33.691,-24.414,-24.414,0.000
1759592828.025,58.105,-33.691,-34.180,-25.879,0.000
1759592828.029,161.621,-31.738,-33.691,-16.113,0.000
1759592828.033,-80.566,-32.227,-26.367,-16.602,0.000
1759592828.037,-201.172,-35.645,-28.809,-17.578,0.000
1759592828.041,-19.043,-36.133,-32.227,-15.625,0.000
1759592828.045,177.246,-34.180,-28.320,-19.531,0.000
1759592828.049,-0.488,-34.180,-22.461,-21.973,0.000
1759592828.053,-204.590,-40.039,-25.391,-22.949,0.000
1759592828.056,-95.703,-41.016,-27.832,-28.320,0.000
1759592828.060,145.508,-43.457,-23.926,-23.926,0.000
1759592828.064,64.941,-46.387,-18.066,-19.531,0.000
1759592828.068,-176.758,-44.434,-17.578,-23.926,0.000
1759592828.072,-147.949,-42.969,-29.297,-15.137,0.000
1759592828.076,97.168,-41.016,-31.738,-13.672,0.000
1759592828.080,118.652,-39.551,-22.949,-25.879,0.000
1759592828.084,-131.348,-39.551,-21.973,-21.973,0.000
1759592828.088,-182.129,-38.086,-22.461,-17.578,0.000
1759592828.092,30.762,-35.645,-22.461,-27.832,0.000
1759592828.096,158.691,-38.086,-26.367,-30.273,0.000
1759592828.099,-66.406,-36.133,-27.344,-27.344,0.000
1759592828.103,-209.473,-34.180,-25.391,-32.715,0.000
1759592828.107,-41.016,-41.992,-23.926,-32.715,0.000
1759592828.111,177.246,-38.086,-19.531,-26.367,0.000
1759592828.115,20.020,-36.621,-20.996,-27.344,0.000
1759592828.119,-197.754,-40.039,-19.043,-26.367,0.000
1759592828.123,-101.562,-37.598,-13.184,-30.762,0.000
1759592828.127,143.555,-40.527,-19.043,-40.039,0.000
1759592828.131,86.426,-45.898,-27.344,-39.551,0.000
1759592828.135,-168.945,-49.805,-24.414,-38.574,0.000
1759592828.139,-174.316,-45.898,-21.973,-41.016,0.000
1759592828.142,71.289,-38.086,-22.461,-30.273,0.000
1759592828.146,137.695,-34.180,-21.484,-12.695,0.000
1759592828.150,-116.699,-37.109,-22.461,-9.766,0.000
1759592828.154,-199.707,-40.527,-23.438,-16.113,0.000
1759592828.158,9.277,-36.133,-23.926,-17.578,0.000
1759592828.162,164.551,-33.691,-29.785,-14.160,0.000
1759592828.166,-52.734,-40.527,-28.809,-22.949,0.000
1759592828.170,-216.797,-39.551,-27.344,-32.227,0.000
1759592828.174,-66.406,-35.645,-28.809,-27.832,0.000
1759592828.178,162.598,-27.832,-26.855,-23.926,0.000
1759592828.181,27.832,-25.391,-24.414,-21.484,0.000
1759592828.185,-201.660,-26.855,-24.902,-25.879,0.000
1759592828.189,-139.648,-32.715,-34.180,-35.156,0.000
1759592828.193,104.980,-38.086,-34.668,-30.273,0.000
1759592828.197,80.566,-35.645,-25.879,-21.973,0.000
1759592828.201,-169.434,-34.180,-30.273,-28.320,0.000
1759592828.205,-183.105,-33.203,-32.227,-30.273,0.000
1759592828.209,44.922,-38.086,-26.855,-20.020,0.000
1759592828.213,127.441,-43.457,-20.996,-23.926,0.000
1759592828.217,-115.723,-43.457,-20.020,-29.297,0.000
1759592828.221,-209.961,-35.156,-28.320,-18.555,0.000
1759592828.224,-20.996,-37.109,-37.598,-21.973,0.000
1759592828.228,149.414,-40.527,-34.180,-31.250,0.000
1759592828.232,-39.062,-40.039,-31.738,-32.715,0.000
1759592828.236,-217.773,-49.316,-33.203,-39.551,0.000
1759592828.240,-86.426,-47.363,-27.832,-39.062,0.000
1759592828.244,140.625,-41.504,-28.809,-35.156,0.000
1759592828.248,29.785,-39.551,-29.785,-28.320,0.000
1759592828.252,-200.684,-46.875,-30.273,-25.391,0.000
1759592828.256,-150.879,-47.363,-27.344,-31.250,0.000
1759592828.260,105.957,-34.668,-17.578,-30.273,0.000
1759592828.264,112.305,-26.367,-19.043,-20.508,0.000
1759592828.267,-146.973,-28.320,-27.344,-15.625,0.000
1759592828.271,-183.594,-38.574,-24.902,-23.438,0.000
1759592828.275,42.480,-43.945,-24.902,-33.691,0.000
1759592828.279,148.438,-42.969,-31.250,-31.738,0.000
1759592828.283,-91.797,-39.062,-35.156,-27.832,0.000
1759592828.287,-210.449,-44.434,-29.785,-27.344,0.000
1759592828.291,-23.438,-43.457,-21.973,-28.320,0.000
1759592828.295,163.086,-36.621,-29.785,-27.344,0.000
1759592828.299,-11.719,-35.156,-26.855,-25.879,0.000
1759592828.303,-203.613,-29.785,-19.043,-23.926,0.000
1759592828.306,-93.750,-33.203,-22.949,-22.949,0.000
1759592828.310,151.855,-31.250,-27.832,-21.973,0.000
1759592828.314,62.012,-30.273,-25.879,-24.414,0.000
1759592828.318,-187.988,-34.668,-18.555,-35.156,0.000
1759592828.322,-155.762,-43.457,-23.438,-35.645,0.000
1759592828.326,95.703,-52.246,-27.832,-28.320,0.000
1759592828.330,122.070,-38.086,-25.391,-27.344,0.000
1759592828.334,-135.254,-30.273,-21.973,-31.738,0.000
1759592828.338,-185.059,-33.203,-23.438,-26.855,0.000
1759592828.342,30.762,-36.133,-31.738,-23.926,0.000
1759592828.346,154.297,-39.551,-31.250,-26.367,0.000
1759592828.349,-70.801,-39.551,-27.832,-28.809,0.000
1759592828.353,-214.355,-35.645,-29.785,-28.320,0.000
1759592828.357,-50.293,-43.457,-39.062,-19.531,0.000
1759592828.361,157.227,-47.852,-32.715,-15.137,0.000
1759592828.365,5.371,-39.062,-19.043,-15.625,0.000
1759592828.369,-200.195,-36.621,-25.879,-20.996,0.000
1759592828.373,-112.793,-39.062,-28.320,-26.367,0.000
1759592828.377,127.441,-38.086,-25.391,-18.066,0.000
1759592828.381,68.359,-41.504,-26.367,-17.090,0.000
1759592828.385,-178.711,-44.434,-25.879,-22.949,0.000
1759592828.389,-158.691,-41.504,-27.344,-18.066,0.000
1759592828.392,88.379,-40.527,-32.227,-23.438,0.000
1759592828.396,135.254,-39.551,-35.156,-33.203,0.000
1759592828.400,-129.883,-39.551,-36.621,-27.832,0.000
1759592828.404,-208.984,-38.086,-32.227,-17.090,0.000
1759592828.408,9.766,-40.039,-23.438,-18.066,0.000
1759592828.412,169.922,-43.457,-23.438,-21.484,0.000
1759592828.416,-41.504,-39.062,-25.391,-15.625,0.000
1759592828.420,-196.777,-34.668,-25.391,-10.742,0.000
1759592828.424,-48.340,-41.992,-21.973,-22.461,0.000
1759592828.428,167.480,-43.457,-30.273,-29.785,0.000
1759592828.431,43.457,-37.109,-37.598,-19.043,0.000
1759592828.435,-173.340,-37.598,-27.344,-13.672,0.000
1759592828.439,-110.352,-41.016,-33.203,-15.625,0.000
1759592828.443,137.207,-36.621,-36.133,-16.113,0.000
1759592828.447,108.398,-38.574,-33.691,-10.742,0.000
1759592828.451,-147.949,-40.527,-28.809,-6.348,0.000
1759592828.455,-164.062,-38.086,-25.391,-16.602,0.000
1759592828.459,67.383,-39.062,-35.645,-24.902,0.000
1759592828.463,146.484,-37.109,-35.645,-24.414,0.000
1759592828.467,-96.191,-37.109,-32.715,-26.367,0.000
1759592828.471,-201.172,-43.457,-41.992,-35.156,0.000
1759592828.474,-5.859,-44.434,-49.805,-39.551,0.000
1759592828.478,175.781,-41.992,-46.387,-34.180,0.000
1759592828.482,-15.137,-42.480,-41.016,-32.227,0.000
1759592828.486,-188.477,-39.062,-36.133,-31.250,0.000
1759592828.490,-59.570,-34.668,-37.109,-25.879,0.000
1759592828.494,176.270,-41.016,-35.645,-22.949,0.000
1759592828.498,68.848,-44.922,-26.855,-19.531,0.000
1759592828.502,-168.457,-42.480,-35.156,-20.020,0.000
1759592828.506,-121.094,-39.551,-39.551,-25.879,0.000
1759592828.510,120.117,-37.598,-32.227,-30.273,0.000
1759592828.514,108.398,-40.527,-34.668,-31.250,0.000
1759592828.517,-153.809,-44.922,-41.504,-36.621,0.000
1759592828.521,-181.641,-41.504,-35.645,-32.715,0.000
1759592828.525,52.246,-36.621,-30.273,-27.344,0.000
1759592828.529,158.203,-28.320,-36.133,-23.926,0.000
1759592828.533,-74.707,-25.879,-33.203,-18.555,0.000
1759592828.537,-187.988,-32.227,-30.762,-8.789,0.000
1759592828.541,-11.230,-31.738,-29.785,-7.324,0.000
1759592828.545,174.805,-33.691,-23.438,-18.555,0.000
1759592828.549,5.371,-33.691,-20.996,-12.207,0.000
1759592828.553,-191.406,-40.039,-19.531,-13.184,0.000
1759592828.556,-88.379,-45.898,-18.066,-21.484,0.000
1759592828.560,144.531,-43.457,-25.391,-17.090,0.000
1759592828.564,60.059,-45.410,-24.414,-7.812,0.000
1759592828.568,-187.012,-51.758,-22.949,-7.812,0.000
1759592828.572,-162.109,-50.781,-24.902,-12.207,0.000
1759592828.576,90.820,-40.039,-26.367,-18.555,0.000
1759592828.580,117.188,-33.203,-31.250,-17.090,0.000
1759592828.584,-141.602,-35.645,-32.715,-13.184,0.000
1759592828.588,-192.871,-33.691,-20.020,-19.043,0.000
1759592828.592,33.691,-32.715,-18.066,-22.949,0.000
1759592828.596,159.180,-40.527,-29.297,-20.996,0.000
1759592828.599,-79.102,-48.828,-26.855,-15.625,0.000
1759592828.603,-213.867,-47.852,-20.020,-24.902,0.000
1759592828.607,-41.992,-50.293,-23.926,-30.762,0.000
1759592828.611,167.969,-51.758,-26.367,-18.555,0.000
1759592828.615,11.230,-37.109,-22.461,-15.137,0.000
1759592828.619,-207.520,-34.180,-24.902,-29.785,0.000
1759592828.623,-113.770,-35.156,-31.738,-32.715,0.000
1759592828.627,138.184,-36.133,-34.180,-28.320,0.000
1759592828.631,76.172,-45.410,-30.273,-27.832,0.000
1759592828.635,-186.523,-47.363,-27.832,-34.668,0.000
1759592828.639,-176.758,-46.875,-25.879,-33.691,0.000
1759592828.642,76.172,-42.969,-29.297,-21.973,0.000
1759592828.646,127.930,-40.527,-31.738,-25.391,0.000
1759592828.650,-130.859,-47.852,-33.203,-33.203,0.000
1759592828.654,-211.914,-42.969,-36.133,-29.297,0.000
1759592828.658,5.859,-30.273,-38.086,-27.344,0.000
1759592828.662,165.039,-31.250,-30.273,-33.203,0.000
1759592828.666,-42.969,-32.227,-22.949,-25.391,0.000
1759592828.670,-202.637,-33.691,-31.738,-20.508,0.000
1759592828.674,-54.688,-36.133,-34.180,-25.391,0.000
1759592828.678,166.504,-30.762,-26.367,-17.578,0.000
1759592828.681,28.320,-36.133,-21.973,-14.160,0.000
1759592828.685,-200.684,-42.969,-29.785,-16.602,0.000
1759592828.689,-129.883,-42.480,-33.203,-14.160,0.000
1759592828.693,124.023,-40.527,-22.461,-22.949,0.000
1759592828.697,83.984,-37.109,-27.344,-28.320,0.000
1759592828.701,-174.316,-33.203,-28.809,-20.996,0.000
1759592828.705,-187.988,-34.668,-25.879,-21.973,0.000
1759592828.709,51.758,-38.574,-25.391,-25.879,0.000
1759592828.713,133.789,-30.762,-20.508,-18.066,0.000
1759592828.717,-123.535,-34.180,-20.020,-13.672,0.000
1759592828.721,-227.051,-49.316,-22.461,-14.648,0.000
1759592828.724,-27.344,-45.410,-20.508,-20.020,0.000
1759592828.728,145.020,-41.992,-25.391,-26.367,0.000
1759592828.732,-62.500,-46.387,-42.480,-27.344,0.000
1759592828.736,-242.188,-36.133,-33.203,-22.949,0.000
1759592828.740,-104.980,-31.250,-26.855,-23.438,0.000
1759592828.744,122.559,-36.621,-41.504,-21.973,0.000
1759592828.748,1.465,-41.504,-36.133,-24.902,0.000
1759592828.752,-237.793,-41.992,-25.879,-30.762,0.000
1759592828.756,-180.176,-41.992,-25.879,-28.809,0.000
1759592828.760,76.660,-42.480,-27.832,-23.438,0.000
1759592828.764,70.801,-43.457,-30.273,-18.066,0.000
1759592828.767,-180.664,-41.016,-22.949,-9.766,0.000
1759592828.771,-212.891,-42.969,-27.832,-17.090,0.000
1759592828.775,21.973,-41.016,-30.273,-30.762,0.000
1759592828.779,133.789,-31.250,-15.625,-22.949,0.000
1759592828.783,-108.887,-36.621,-18.555,-17.578,0.000
1759592828.787,-240.723,-47.852,-13.672,-39.062,0.000
1759592828.791,-64.453,-34.668,-5.371,-58.105,0.000
1759592828.795,129.395,-26.855,-19.043,-55.176,0.000
1759592828.799,-54.688,-41.504,-18.066,-61.523,0.000
1759592828.803,-264.648,-45.898,-4.395,-79.102,0.000
1759592828.806,-178.223,-44.434,19.531,-105.469,0.000
1759592828.810,62.500,-15.625,28.320,-98.633,0.000
1759592828.814,-26.367,-1.465,3.418,-92.773,0.000
1759592828.818,-298.340,-53.711,3.906,-121.094,0.000
1759592828.822,-324.219,-40.039,-8.789,-166.016,0.000
1759592828.826,-122.559,27.344,-1.465,-203.613,0.000
1759592828.830,-89.844,27.832,24.414,-201.660,0.000
1759592828.834,-333.496,-3.418,30.273,-170.410,0.000
1759592828.838,-436.523,-28.809,21.484,-198.242,0.000
1759592828.842,-262.207,-34.180,42.480,-232.422,0.000
1759592828.846,-183.594,38.574,76.172,-247.559,0.000
1759592828.849,-478.027,24.414,59.082,-246.582,0.000
1759592828.853,-635.254,-68.848,56.641,-217.285,0.000
1759592828.857,-496.094,-62.012,61.035,-221.680,0.000
1759592828.861,-418.945,-47.363,47.852,-258.789,0.000
1759592828.865,-761.719,-20.996,54.199,-271.484,0.000
1759592828.869,-1000.000,46.387,74.707,-251.465,0.000
1759592828.873,-941.895,15.137,62.988,-242.188,0.000
1759592828.877,-663.086,-31.738,49.316,-205.566,0.000
1759592828.881,-763.184,-0.488,58.105,-188.477,0.000
1759592828.885,-1000.000,31.738,65.918,-186.035,0.000
1759592828.889,-996.094,35.156,72.754,-173.340,0.000
1759592828.892,-994.141,39.062,59.082,-177.734,0.000
1759592828.896,-1000.000,64.453,43.457,-173.828,0.000
1759592828.900,-994.629,85.449,39.551,-168.457,0.000
1759592828.904,-1000.000,98.145,38.086,-157.227,0.000
1759592828.908,-968.750,109.863,30.762,-136.230,0.000
1759592828.912,-840.332,122.559,15.625,-92.773,0.000
1759592828.916,-891.602,129.395,15.625,-77.148,0.000
1759592828.920,-886.230,125.488,13.184,-86.914,0.000
1759592828.924,-581.055,130.371,0.488,-86.426,0.000
1759592828.928,-217.285,132.324,-7.812,-74.219,0.000
1759592828.931,-225.586,134.766,-10.254,-41.992,0.000
1759592828.935,-364.258,144.531,-12.207,-40.527,0.000
1759592828.939,-217.285,151.855,-21.973,-54.199,0.000
1759592828.943,117.676,136.719,-31.250,-51.758,0.000
1759592828.947,153.809,118.652,-32.227,-40.039,0.000
1759592828.951,-35.645,117.188,-35.156,-13.672,0.000
1759592828.955,9.277,116.211,-41.992,3.418,0.000
1759592828.959,256.836,115.723,-41.992,-13.672,0.000
1759592828.963,350.586,109.375,-39.551,-20.020,0.000
1759592828.967,137.695,113.281,-44.922,0.488,0.000
1759592828.971,70.312,126.465,-48.340,16.113,0.000
1759592828.974,305.664,75.195,-39.062,26.855,0.000
1759592828.978,502.441,38.574,-39.062,22.949,0.000
1759592828.982,274.414,82.031,-53.223,-2.441,0.000
1759592828.986,87.891,70.312,-48.828,-13.672,0.000
1759592828.990,253.906,35.156,-45.410,17.578,0.000
1759592828.994,493.652,52.734,-57.617,23.926,0.000
1759592828.998,398.926,60.059,-59.570,32.227,0.000
1759592829.002,166.992,53.711,-54.199,52.734,0.000
1759592829.006,214.355,25.879,-46.875,51.758,0.000
1759592829.010,482.422,-45.410,-36.133,48.828,0.000
1759592829.014,475.098,-94.238,-40.527,45.410,0.000
1759592829.017,184.082,-63.477,-44.922,34.180,0.000
1759592829.021,124.512,62.012,-43.945,21.973,0.000
1759592829.025,376.953,118.652,-42.480,35.645,0.000
1759592829.029,491.699,80.566,-44.434,52.246,0.000
1759592829.033,241.211,22.461,-47.363,58.105,0.000
1759592829.037,118.652,-1.953,-41.992,58.105,0.000
1759592829.041,296.875,-5.371,-44.922,55.664,0.000
1759592829.045,484.863,-13.672,-44.434,48.828,0.000
1759592829.049,308.594,7.324,-38.086,53.223,0.000
1759592829.053,109.375,16.113,-45.410,65.918,0.000
1759592829.056,210.938,2.930,-49.316,65.918,0.000
1759592829.060,455.566,-6.348,-47.852,67.383,0.000
1759592829.064,357.422,-15.625,-45.410,70.801,0.000
1759592829.068,97.168,-19.043,-38.574,63.965,0.000
1759592829.072,121.582,-11.719,-41.992,49.316,0.000
1759592829.076,375.977,-6.348,-47.363,50.781,0.000
1759592829.080,400.879,-7.812,-45.898,56.641,0.000
1759592829.084,125.488,-5.859,-42.480,52.246,0.000
1759592829.088,64.941,-14.160,-45.410,54.199,0.000
1759592829.092,283.203,-27.344,-54.688,49.805,0.000
1759592829.096,402.344,-22.949,-55.176,47.363,0.000
1759592829.099,159.668,-22.461,-56.641,51.758,0.000
1759592829.103,14.160,-24.414,-54.688,53.223,0.000
1759592829.107,185.547,-24.902,-57.129,59.082,0.000
1759592829.111,382.324,-31.738,-55.176,62.012,0.000
1759592829.115,208.008,-33.691,-47.363,57.129,0.000
1759592829.119,-13.672,-31.250,-54.199,55.664,0.000
1759592829.123,69.824,-36.133,-55.664,52.246,0.000
1759592829.127,313.477,-40.039,-54.688,45.898,0.000
1759592829.131,255.371,-32.227,-51.270,47.363,0.000
1759592829.135,-22.949,-36.621,-53.223,44.434,0.000
1759592829.139,1.953,-41.504,-60.059,39.062,0.000
1759592829.142,259.277,-41.992,-60.547,32.715,0.000
1759592829.146,265.625,-48.340,-57.617,28.809,0.000
1759592829.150,2.930,-47.852,-58.105,29.297,0.000
1759592829.154,-81.543,-45.410,-59.570,32.715,0.000
1759592829.158,124.512,-47.363,-58.105,23.926,0.000
1759592829.162,273.926,-47.852,-62.012,16.602,0.000
1759592829.166,58.594,-47.852,-60.059,26.367,0.000
1759592829.170,-107.422,-53.223,-57.617,23.438,0.000
1759592829.174,36.133,-51.758,-53.711,18.066,0.000
1759592829.178,251.953,-52.734,-54.199,21.973,0.000
1759592829.181,105.469,-56.641,-57.617,24.414,0.000
1759592829.185,-126.465,-51.270,-52.734,26.367,0.000
1759592829.189,-52.246,-53.711,-52.246,20.020,0.000
1759592829.193,203.125,-59.082,-52.734,10.742,0.000
1759592829.197,166.504,-56.641,-57.617,16.113,0.000
1759592829.201,-105.469,-50.293,-50.781,18.555,0.000
1759592829.205,-122.070,-48.340,-37.109,11.230,0.000
1759592829.209,125.488,-47.852,-43.457,10.254,0.000
1759592829.213,210.449,-45.898,-41.992,8.301,0.000
1759592829.217,-54.199,-47.852,-31.738,14.648,0.000
1759592829.221,-165.527,-53.223,-38.574,12.695,0.000
1759592829.224,38.086,-55.176,-46.387,4.883,0.000
1759592829.228,215.332,-57.129,-43.457,0.977,0.000
1759592829.232,5.371,-58.594,-39.551,0.488,0.000
1759592829.236,-175.781,-56.641,-39.062,0.000,0.000
1759592829.240,-41.016,-54.688,-45.898,-2.441,0.000
1759592829.244,195.312,-50.781,-47.363,6.348,0.000
1759592829.248,86.426,-48.340,-36.621,-0.488,0.000
1759592829.252,-150.391,-57.617,-35.645,-9.766,0.000
1759592829.256,-99.121,-58.594,-40.527,-6.348,0.000
1759592829.260,154.785,-54.199,-40.039,-16.602,0.000
1759592829.264,154.785,-56.641,-34.668,-14.160,0.000
1759592829.267,-116.699,-60.059,-37.109,-6.836,0.000
1759592829.271,-153.320,-55.176,-44.922,-15.137,0.000
1759592829.275,91.797,-47.852,-40.527,-14.160,0.000
1759592829.279,193.359,-53.711,-38.086,-12.695,0.000
1759592829.283,-62.012,-59.570,-38.086,-18.555,0.000
1759592829.287,-186.035,-52.246,-37.598,-3.906,0.000
1759592829.291,10.254,-46.387,-35.645,5.859,0.000
1759592829.295,203.125,-43.945,-29.297,-9.766,0.000
1759592829.299,10.742,-46.387,-30.273,-8.301,0.000
1759592829.303,-183.105,-49.805,-28.809,-5.859,0.000
1759592829.306,-70.801,-51.270,-26.855,-14.160,0.000
1759592829.310,169.922,-50.781,-30.273,-20.508,0.000
1759592829.314,86.914,-48.828,-26.855,-11.719,0.000
1759592829.318,-161.621,-55.176,-24.414,-4.883,0.000
1759592829.322,-131.348,-51.270,-26.855,-12.695,0.000
1759592829.326,132.324,-41.992,-23.438,-11.719,0.000
1759592829.330,154.785,-48.340,-27.344,-8.789,0.000
1759592829.334,-115.723,-52.734,-32.227,-17.578,0.000
1759592829.338,-175.781,-49.805,-27.832,-25.391,0.000
1759592829.342,43.457,-49.805,-24.902,-30.273,0.000
1759592829.346,186.035,-46.875,-30.273,-19.531,0.000
1759592829.349,-43.457,-49.805,-32.227,-8.789,0.000
1759592829.353,-193.359,-54.199,-27.344,-24.902,0.000
1759592829.357,-28.320,-56.641,-33.203,-31.738,0.000
1759592829.361,184.082,-54.199,-39.551,-29.297,0.000
1759592829.365,16.602,-54.199,-37.598,-31.738,0.000
1759592829.369,-203.613,-56.641,-41.992,-30.762,0.000
1759592829.373,-100.586,-52.734,-40.527,-27.832,0.000
1759592829.377,160.156,-49.316,-38.086,-20.508,0.000
1759592829.381,94.238,-41.016,-43.457,-15.625,0.000
1759592829.385,-158.691,-41.016,-32.715,-22.461,0.000
1759592829.389,-145.020,-42.480,-28.320,-31.250,0.000
1759592829.392,95.215,-44.434,-35.645,-30.762,0.000
1759592829.396,146.973,-50.781,-33.691,-25.879,0.000
1759592829.400,-118.164,-47.363,-26.367,-31.250,0.000
1759592829.404,-196.289,-43.457,-25.879,-35.156,0.000
1759592829.408,22.461,-44.434,-32.715,-39.551,0.000
1759592829.412,181.152,-47.852,-34.180,-40.039,0.000
1759592829.416,-32.715,-42.969,-32.227,-28.809,0.000
1759592829.420,-198.730,-42.969,-33.203,-27.344,0.000
1759592829.424,-44.434,-48.340,-31.250,-33.203,0.000
1759592829.428,186.035,-40.039,-32.227,-33.691,0.000
1759592829.431,45.410,-40.527,-29.297,-34.180,0.000
1759592829.435,-187.988,-50.293,-28.320,-30.762,0.000
1759592829.439,-111.816,-49.316,-28.809,-21.973,0.000
1759592829.443,148.926,-43.945,-17.090,-20.020,0.000
1759592829.447,118.652,-49.316,-21.973,-24.902,0.000
1759592829.451,-155.273,-50.781,-28.809,-30.273,0.000
1759592829.455,-164.551,-42.480,-24.414,-32.227,0.000
1759592829.459,92.285,-39.062,-24.414,-34.668,0.000
1759592829.463,169.434,-36.621,-23.926,-35.645,0.000
1759592829.467,-94.238,-41.016,-24.902,-38.086,0.000
1759592829.471,-192.383,-48.340,-29.785,-39.551,0.000
1759592829.474,11.719,-50.781,-29.785,-36.133,0.000
1759592829.478,187.012,-45.898,-25.391,-28.809,0.000
1759592829.482,-16.602,-47.852,-40.527,-16.113,0.000
1759592829.486,-199.707,-52.246,-46.387,-24.902,0.000
1759592829.490,-58.105,-46.387,-30.762,-32.715,0.000
1759592829.494,175.293,-46.875,-33.691,-27.344,0.000
1759592829.498,46.875,-47.363,-33.691,-23.438,0.000
1759592829.502,-183.594,-49.316,-28.320,-21.484,0.000
1759592829.506,-118.652,-49.805,-31.738,-25.391,0.000
1759592829.510,128.906,-49.805,-36.621,-31.250,0.000
1759592829.514,123.047,-47.363,-30.762,-26.855,0.000
1759592829.517,-136.719,-41.504,-28.320,-24.902,0.000
1759592829.521,-166.992,-46.387,-36.621,-32.227,0.000
1759592829.525,70.312,-48.828,-42.480,-28.320,0.000
1759592829.529,179.199,-46.387,-37.598,-18.066,0.000
1759592829.533,-64.453,-49.316,-25.391,-25.391,0.000
1759592829.537,-180.664,-52.246,-23.926,-26.367,0.000
1759592829.541,-0.977,-52.246,-27.344,-25.879,0.000
1759592829.545,183.594,-49.316,-26.855,-25.391,0.000
1759592829.549,1.953,-42.480,-23.438,-20.020,0.000
1759592829.553,-207.031,-41.016,-28.320,-29.297,0.000
1759592829.556,-85.938,-43.945,-27.344,-31.250,0.000
1759592829.560,171.387,-43.945,-24.902,-24.414,0.000
1759592829.564,76.660,-45.898,-29.297,-24.414,0.000
1759592829.568,-179.199,-46.875,-27.832,-19.043,0.000
1759592829.572,-149.902,-45.410,-29.297,-10.254,0.000
1759592829.576,103.027,-45.898,-25.391,-20.020,0.000
1759592829.580,113.281,-49.805,-26.367,-39.062,0.000
1759592829.584,-148.926,-50.781,-30.273,-32.227,0.000
1759592829.588,-191.406,-48.340,-21.484,-17.090,0.000
1759592829.592,38.086,-46.875,-22.461,-22.949,0.000
1759592829.596,168.457,-40.039,-23.926,-29.297,0.000
1759592829.599,-69.824,-33.691,-24.902,-25.391,0.000
1759592829.603,-211.914,-38.574,-25.391,-22.949,0.000
1759592829.607,-27.344,-36.621,-29.785,-17.578,0.000
1759592829.611,186.523,-36.621,-27.344,-16.113,0.000
1759592829.615,3.906,-38.086,-19.531,-21.484,0.000
1759592829.619,-212.402,-43.945,-22.949,-19.531,0.000
1759592829.623,-114.746,-47.363,-20.508,-29.785,0.000
1759592829.627,140.137,-38.574,-24.414,-42.969,0.000
1759592829.631,75.195,-37.109,-34.668,-38.086,0.000
1759592829.635,-186.523,-43.457,-33.691,-34.180,0.000
1759592829.639,-168.457,-45.898,-32.227,-34.180,0.000
1759592829.642,91.797,-41.504,-34.668,-19.531,0.000
1759592829.646,151.855,-40.527,-30.273,-16.113,0.000
1759592829.650,-111.328,-56.641,-21.973,-23.926,0.000
1759592829.654,-169.434,-75.195,-22.461,-21.484,0.000
1759592829.658,36.621,-65.918,-27.832,-31.250,0.000
1759592829.662,152.832,-32.715,-36.621,-35.156,0.000
1759592829.666,-59.082,-40.039,-26.855,-24.902,0.000
1759592829.670,-206.055,-76.660,-10.742,-26.367,0.000
1759592829.674,-57.617,-61.523,-20.508,-38.574,0.000
1759592829.678,156.738,-27.344,-31.738,-35.156,0.000
1759592829.681,22.949,-19.043,-30.273,-24.902,0.000
1759592829.685,-195.312,-34.180,-20.508,-19.043,0.000
1759592829.689,-119.141,-46.875,-22.461,-20.996,0.000
1759592829.693,136.230,-33.691,-28.320,-27.344,0.000
1759592829.697,100.586,-30.762,-22.949,-34.180,0.000
1759592829.701,-174.316,-55.176,-23.926,-38.574,0.000
1759592829.705,-186.035,-43.945,-28.809,-35.645,0.000
1759592829.709,71.777,-31.250,-28.320,-31.250,0.000
1759592829.713,141.602,-57.129,-21.973,-45.898,0.000
1759592829.717,-125.000,-59.082,-15.625,-60.547,0.000
1759592829.721,-194.336,-41.504,-6.836,-30.273,0.000
1759592829.724,25.879,-81.543,-10.254,-28.809,0.000
1759592829.728,194.824,-131.836,-8.789,-43.457,0.000
1759592829.732,-17.578,-77.637,-14.648,-32.715,0.000
1759592829.736,-217.285,-23.438,-32.227,-52.246,0.000
1759592829.740,-97.656,-63.477,-2.441,-88.379,0.000
1759592829.744,141.602,-81.055,14.648,-76.660,0.000
1759592829.748,40.039,-43.457,-16.113,-45.410,0.000
1759592829.752,-210.938,-83.008,-15.625,-57.129,0.000
1759592829.756,-163.574,-176.758,7.812,-62.500,0.000
1759592829.760,73.730,-130.371,19.531,-91.309,0.000
1759592829.764,20.996,-11.230,18.555,-143.555,0.000
1759592829.767,-225.098,22.949,29.297,-105.957,0.000
1759592829.771,-245.605,7.812,42.969,-108.398,0.000
1759592829.775,-22.461,-53.223,43.945,-141.602,0.000
1759592829.779,65.430,-135.742,39.551,-129.395,0.000
1759592829.783,-196.289,-126.953,82.031,-130.859,0.000
1759592829.787,-332.031,-42.969,107.422,-152.832,0.000
1759592829.791,-166.504,-35.156,56.641,-184.570,0.000
1759592829.795,-13.672,-51.758,59.570,-248.047,0.000
1759592829.799,-221.680,-50.781,102.051,-261.230,0.000
1759592829.803,-375.488,-89.844,128.418,-206.055,0.000
1759592829.806,-239.258,-125.000,121.582,-201.172,0.000
1759592829.810,-31.738,-181.641,96.680,-256.836,0.000
1759592829.814,-132.324,-59.570,196.289,-261.230,0.000
1759592829.818,-325.684,110.352,230.957,-187.988,0.000
1759592829.822,-243.652,59.082,147.461,-156.250,0.000
1759592829.826,1.465,-62.988,220.703,-175.781,0.000
1759592829.830,4.883,-68.359,352.051,-194.336,0.000
1759592829.834,-284.668,-21.973,456.543,-229.980,0.000
1759592829.838,-331.055,-36.133,583.008,-192.871,0.000
1759592829.842,-90.332,29.297,698.242,-162.109,0.000
1759592829.846,18.066,-21.484,786.133,-208.984,0.000
1759592829.849,-233.398,-62.988,887.695,-212.891,0.000
1759592829.853,-375.488,-76.660,949.219,-219.238,0.000
1759592829.857,-192.871,-5.859,969.238,-195.801,0.000
1759592829.861,61.523,110.840,969.238,-118.652,0.000
1759592829.865,-81.055,78.613,969.727,-104.980,0.000
1759592829.869,-333.496,-13.184,970.215,-145.996,0.000
1759592829.873,-308.105,-56.152,970.215,-209.961,0.000
1759592829.877,-65.918,-143.066,970.215,-194.824,0.000
1759592829.881,-88.867,-156.250,969.727,-123.047,0.000
1759592829.885,-367.676,-62.012,969.727,-137.207,0.000
1759592829.889,-350.098,-62.012,969.727,-131.348,0.000
1759592829.892,-108.398,-131.836,969.727,-145.020,0.000
1759592829.896,-79.102,-203.125,969.727,-169.922,0.000
1759592829.900,-333.496,-232.910,970.215,-146.973,0.000
1759592829.904,-403.809,-196.289,970.215,-125.977,0.000
1759592829.908,-171.875,-135.254,970.215,-105.957,0.000
1759592829.912,-38.086,-83.496,969.727,-121.582,0.000
1759592829.916,-280.273,-87.402,969.727,-135.254,0.000
1759592829.920,-428.223,-73.242,969.727,-116.211,0.000
1759592829.924,-235.352,-82.031,969.727,-82.031,0.000
1759592829.928,-8.301,-148.926,970.215,-77.637,0.000
1759592829.931,-151.855,-138.672,970.215,-94.727,0.000
1759592829.935,-360.352,-116.211,969.727,-83.984,0.000
1759592829.939,-267.090,-172.363,969.727,-67.383,0.000
1759592829.943,7.812,-153.809,969.727,-71.289,0.000
1759592829.947,1.953,-107.422,969.727,-52.246,0.000
1759592829.951,-226.562,-130.859,969.727,-27.344,0.000
1759592829.955,-234.863,-132.324,969.727,-37.598,0.000
1759592829.959,0.977,-107.422,969.727,-51.758,0.000
1759592829.963,99.121,-96.191,970.215,-49.316,0.000
1759592829.967,-139.648,-101.562,969.727,-53.223,0.000
1759592829.971,-220.703,-108.887,969.727,-51.270,0.000
1759592829.974,39.551,-108.887,970.215,-0.488,0.000
1759592829.978,230.469,-117.188,970.215,8.301,0.000
1759592829.982,13.184,-115.234,969.727,-9.766,0.000
1759592829.986,-157.227,-125.977,970.215,-4.883,0.000
1759592829.990,-16.113,-84.961,970.215,1.953,0.000
1759592829.994,210.938,-52.246,969.727,-6.348,0.000
1759592829.998,104.004,-63.965,970.215,1.465,0.000
1759592830.002,-129.395,-45.898,970.215,15.625,0.000
1759592830.006,-72.754,-54.199,970.215,11.719,0.000
1759592830.010,193.848,-65.918,970.215,11.230,0.000
1759592830.014,190.430,-65.918,970.215,19.043,0.000
1759592830.017,-72.754,-59.570,970.215,25.879,0.000
1759592830.021,-94.238,-43.945,970.215,38.086,0.000
1759592830.025,148.926,-40.527,969.727,44.922,0.000
1759592830.029,253.418,-48.340,970.215,49.316,0.000
1759592830.033,2.441,-49.805,969.727,54.688,0.000
1759592830.037,-117.676,-31.250,969.727,70.312,0.000
1759592830.041,68.848,-12.695,970.215,72.754,0.000
1759592830.045,261.719,-2.441,969.727,68.359,0.000
1759592830.049,73.730,-1.953,969.727,74.219,0.000
1759592830.053,-125.977,-0.488,969.727,81.543,0.000
1759592830.056,-3.906,2.930,969.727,86.914,0.000
1759592830.060,244.629,-1.465,970.215,85.449,0.000
1759592830.064,147.461,4.883,970.215,91.309,0.000
1759592830.068,-96.680,25.391,970.215,104.980,0.000
1759592830.072,-49.316,32.227,970.215,104.004,0.000
1759592830.076,216.309,33.203,970.215,94.727,0.000
1759592830.080,236.328,30.273,969.727,93.262,0.000
1759592830.084,-31.250,29.297,970.215,94.727,0.000
1759592830.088,-86.426,32.715,970.215,99.121,0.000
1759592830.092,140.625,33.203,969.727,92.285,0.000
1759592830.096,278.320,36.621,969.727,96.191,0.000
1759592830.099,36.621,39.551,970.215,104.492,0.000
1759592830.103,-102.051,44.922,970.215,97.656,0.000
1759592830.107,86.914,37.109,969.727,100.098,0.000
1759592830.111,300.781,43.945,969.727,100.098,0.000
1759592830.115,136.230,66.895,969.727,96.680,0.000
1759592830.119,-73.730,62.988,970.215,90.820,0.000
1759592830.123,26.367,54.688,970.215,86.426,0.000
1759592830.127,283.691,55.176,970.215,94.238,0.000
1759592830.131,222.168,44.434,969.727,91.797,0.000
1759592830.135,-34.668,27.832,969.727,77.637,0.000
1759592830.139,-22.949,41.992,970.215,72.754,0.000
1759592830.142,232.910,52.246,970.215,79.102,0.000
1759592830.146,279.297,34.668,970.215,73.730,0.000
1759592830.150,5.371,23.926,970.215,58.105,0.000
1759592830.154,-77.637,26.367,970.215,59.082,0.000
1759592830.158,139.160,36.133,970.215,58.105,0.000
1759592830.162,292.480,27.344,969.727,58.594,0.000
1759592830.166,59.570,6.836,969.727,62.500,0.000
1759592830.170,-110.840,7.812,969.727,65.918,0.000
1759592830.174,42.480,12.207,969.238,58.594,0.000
1759592830.178,264.648,9.277,965.332,51.758,0.000
1759592830.181,123.047,12.695,939.941,59.082,0.000
1759592830.185,-103.027,23.926,888.672,64.941,0.000
1759592830.189,-31.250,20.508,844.238,56.641,0.000
1759592830.193,221.680,6.348,816.895,44.922,0.000
1759592830.197,183.105,-10.742,790.039,46.875,0.000
1759592830.201,-79.102,-4.883,761.230,43.457,0.000
1759592830.205,-86.914,6.348,738.281,36.621,0.000
1759592830.209,155.273,6.836,714.355,32.227,0.000
1759592830.213,229.492,6.348,684.082,29.785,0.000
1759592830.217,-31.250,-3.418,659.668,30.762,0.000
1759592830.221,-126.465,-7.812,637.207,27.344,0.000
1759592830.224,83.008,-7.324,624.023,25.391,0.000
1759592830.228,256.348,-23.438,605.469,30.273,0.000
1759592830.232,55.664,-30.273,571.289,38.574,0.000
1759592830.236,-122.070,-25.879,555.664,33.203,0.000
1759592830.240,3.418,-28.320,538.574,20.020,0.000
1759592830.244,230.957,-23.438,510.254,24.414,0.000
1759592830.248,109.375,-18.066,491.211,24.414,0.000
1759592830.252,-138.184,-24.902,468.750,17.578,0.000
1759592830.256,-76.172,-35.156,451.172,17.090,0.000
1759592830.260,194.336,-30.273,436.035,21.484,0.000
1759592830.264,178.711,-23.926,411.621,20.508,0.000
1759592830.267,-96.191,-30.762,393.066,13.184,0.000
1759592830.271,-131.348,-47.363,382.812,5.371,0.000
1759592830.275,114.746,-39.551,366.211,8.789,0.000
1759592830.279,224.121,-28.809,350.586,18.066,0.000
1759592830.283,-31.250,-27.344,345.215,12.207,0.000
1759592830.287,-151.367,-31.738,324.707,0.000,0.000
1759592830.291,29.297,-33.691,297.363,-13.184,0.000
1759592830.295,206.543,-35.645,287.109,-18.555,0.000
1759592830.299,12.207,-42.969,279.785,-16.113,0.000
1759592830.303,-181.641,-45.898,262.695,-10.742,0.000
1759592830.306,-66.895,-47.852,248.535,-14.648,0.000
1759592830.310,172.363,-36.133,240.234,-14.160,0.000
1759592830.314,86.426,-30.762,229.980,0.000,0.000
1759592830.318,-150.879,-34.180,229.980,8.789,0.000
1759592830.322,-113.281,-34.180,217.773,10.742,0.000
1759592830.326,135.742,-39.062,207.031,5.371,0.000
1759592830.330,152.832,-40.527,205.078,-3.906,0.000
1759592830.334,-112.793,-43.457,193.848,-5.371,0.000
1759592830.338,-171.875,-43.945,184.082,-11.719,0.000
1759592830.342,57.129,-40.527,178.223,-17.090,0.000
1759592830.346,192.383,-39.062,173.828,-13.672,0.000
1759592830.349,-39.062,-39.062,166.504,-12.695,0.000
1759592830.353,-174.316,-46.875,161.133,-17.090,0.000
1759592830.357,6.348,-44.922,156.738,-13.184,0.000
1759592830.361,214.355,-42.480,155.273,-13.672,0.000
1759592830.365,34.180,-50.293,145.508,-16.113,0.000
1759592830.369,-182.617,-42.969,131.836,-14.648,0.000
1759592830.373,-78.125,-33.691,133.301,-23.438,0.000
1759592830.377,173.340,-30.762,125.977,-24.414,0.000
1759592830.381,105.957,-21.484,115.234,-19.043,0.000
1759592830.385,-148.926,-18.555,115.234,-18.555,0.000
1759592830.389,-136.719,-25.391,111.816,-22.461,0.000
1759592830.392,118.164,-32.227,105.469,-18.066,0.000
1759592830.396,166.504,-36.621,103.516,-9.766,0.000
1759592830.400,-95.703,-31.738,100.098,-7.324,0.000
1759592830.404,-171.875,-26.367,95.703,-3.906,0.000
1759592830.408,46.387,-27.832,88.379,-5.859,0.000
1759592830.412,198.730,-35.156,72.754,-3.906,0.000
1759592830.416,-26.367,-28.809,73.730,-4.883,0.000
1759592830.420,-179.688,-28.320,77.148,-15.625,0.000
1759592830.424,-20.996,-40.527,66.895,-5.859,0.000
1759592830.428,198.242,-37.598,64.941,-1.953,0.000
1759592830.431,46.875,-34.180,63.477,-10.254,0.000
1759592830.435,-188.477,-35.645,58.594,-12.695,0.000
1759592830.439,-109.375,-35.156,52.734,-13.184,0.000
1759592830.443,142.090,-27.832,43.457,-16.602,0.000
1759592830.447,107.422,-26.855,47.363,-19.531,0.000
1759592830.451,-146.973,-42.480,52.734,-17.578,0.000
1759592830.455,-166.016,-52.734,34.668,-20.020,0.000
1759592830.459,70.801,-44.434,27.344,-24.414,0.000
1759592830.463,144.531,-40.527,46.875,-19.531,0.000
1759592830.467,-106.934,-49.316,56.152,-13.672,0.000
1759592830.471,-204.102,-41.992,46.875,-13.672,0.000
1759592830.474,-2.441,-24.902,43.457,-16.602,0.000
1759592830.478,170.898,-25.879,49.316,-18.555,0.000
1759592830.482,-37.109,-40.527,40.527,-20.508,0.000
1759592830.486,-208.984,-48.828,35.156,-18.555,0.000
1759592830.490,-66.406,-43.945,38.086,-17.090,0.000
1759592830.494,165.039,-43.945,36.621,-16.602,0.000
1759592830.498,47.852,-55.664,36.621,-15.625,0.000
1759592830.502,-191.895,-55.664,34.180,-11.230,0.000
1759592830.506,-141.602,-40.039,34.668,-10.742,0.000
1759592830.510,116.699,-30.762,44.434,-21.484,0.000
1759592830.514,105.957,-35.645,35.156,-23.438,0.000
1759592830.517,-158.203,-34.668,25.391,-16.602,0.000
1759592830.521,-184.570,-29.785,32.715,-22.949,0.000
1759592830.525,50.781,-37.598,29.297,-26.855,0.000
1759592830.529,152.344,-45.898,19.531,-18.555,0.000
1759592830.533,-104.980,-48.828,16.602,-23.438,0.000
1759592830.537,-228.516,-62.500,14.648,-32.227,0.000
1759592830.541,-31.738,-66.406,14.648,-33.691,0.000
1759592830.545,155.762,-50.293,8.301,-24.414,0.000
1759592830.549,-31.738,-54.199,3.906,-22.461,0.000
1759592830.553,-227.051,-52.734,6.836,-29.785,0.000
1759592830.556,-96.680,-43.945,13.184,-25.391,0.000
1759592830.560,156.250,-49.316,5.859,-12.695,0.000
1759592830.564,53.223,-49.316,-2.930,-10.254,0.000
1759592830.568,-194.336,-42.969,3.906,-21.973,0.000
1759592830.572,-163.086,-42.969,1.953,-28.809,0.000
1759592830.576,92.773,-48.340,-5.859,-24.902,0.000
1759592830.580,119.629,-45.898,-5.371,-18.066,0.000
1759592830.584,-145.508,-41.992,-2.441,-17.090,0.000
1759592830.588,-190.430,-47.363,-8.301,-14.160,0.000
1759592830.592,24.902,-48.828,-18.066,-12.695,0.000
1759592830.596,149.414,-42.480,-22.949,-11.230,0.000
1759592830.599,-77.637,-51.270,-16.113,-19.043,0.000
1759592830.603,-216.797,-59.082,-10.254,-29.785,0.000
1759592830.607,-33.691,-52.246,-18.555,-15.137,0.000
1759592830.611,167.480,-45.410,-19.531,-13.672,0.000
1759592830.615,-4.395,-45.898,-12.207,-27.832,0.000
1759592830.619,-214.844,-50.781,-15.137,-25.879,0.000
1759592830.623,-112.793,-52.734,-22.461,-26.367,0.000
1759592830.627,138.184,-47.363,-26.367,-30.762,0.000
1759592830.631,71.289,-42.480,-14.648,-26.855,0.000
1759592830.635,-176.758,-47.852,-12.207,-20.508,0.000
1759592830.639,-162.109,-44.434,-16.602,-18.555,0.000
1759592830.642,100.098,-38.086,-12.695,-12.207,0.000
1759592830.646,140.137,-41.016,-17.578,-17.090,0.000
1759592830.650,-134.766,-43.945,-21.484,-18.066,0.000
1759592830.654,-201.172,-51.270,-21.973,-12.695,0.000
1759592830.658,20.020,-53.223,-15.625,-15.137,0.000
1759592830.662,177.246,-46.387,-19.531,-14.160,0.000
1759592830.666,-45.410,-44.434,-25.391,-15.137,0.000
1759592830.670,-204.590,-42.969,-22.461,-14.160,0.000
1759592830.674,-38.086,-42.480,-18.555,-8.301,0.000
1759592830.678,181.641,-40.527,-25.879,-14.648,0.000
1759592830.681,20.508,-44.434,-30.273,-17.090,0.000
1759592830.685,-184.570,-48.828,-23.438,-20.508,0.000
1759592830.689,-86.914,-41.992,-24.902,-25.391,0.000
1759592830.693,137.207,-46.875,-27.832,-27.344,0.000
1759592830.697,93.750,-55.176,-34.180,-17.090,0.000
1759592830.701,-168.457,-46.875,-30.273,-15.625,0.000
1759592830.705,-186.035,-43.945,-25.879,-24.902,0.000
1759592830.709,71.777,-42.969,-24.902,-12.207,0.000
1759592830.713,156.738,-45.898,-21.484,-8.301,0.000
1759592830.717,-103.027,-45.410,-24.414,-17.090,0.000
1759592830.721,-190.918,-40.527,-22.949,-22.461,0.000
1759592830.724,27.832,-37.598,-25.391,-23.926,0.000
1759592830.728,191.406,-43.457,-33.691,-27.832,0.000
1759592830.732,-28.320,-45.898,-38.574,-36.133,0.000
1759592830.736,-203.125,-38.574,-34.180,-29.297,0.000
1759592830.740,-60.059,-41.504,-38.574,-24.414,0.000
1759592830.744,165.527,-46.387,-47.852,-30.762,0.000
1759592830.748,40.039,-42.480,-38.086,-34.180,0.000
1759592830.752,-194.336,-43.945,-32.715,-28.809,0.000
1759592830.756,-133.789,-45.410,-39.551,-26.367,0.000
1759592830.760,125.488,-47.363,-38.086,-28.809,0.000
1759592830.764,111.816,-50.293,-32.227,-32.227,0.000
1759592830.767,-156.250,-43.457,-36.133,-29.785,0.000
1759592830.771,-182.129,-37.109,-37.109,-21.484,0.000
1759592830.775,62.500,-28.320,-34.180,-21.973,0.000
1759592830.779,163.574,-22.949,-30.762,-23.438,0.000
1759592830.783,-83.008,-32.227,-37.109,-24.414,0.000
1759592830.787,-194.336,-38.574,-45.898,-22.949,0.000
1759592830.791,0.000,-35.156,-37.598,-27.344,0.000
1759592830.795,183.105,-27.832,-26.855,-33.691,0.000
1759592830.799,-5.371,-29.785,-31.738,-26.855,0.000
1759592830.803,-189.941,-34.180,-32.227,-16.602,0.000
1759592830.806,-57.129,-26.855,-31.738,-20.020,0.000
1759592830.810,183.594,-23.926,-31.738,-27.344,0.000
1759592830.814,72.754,-26.367,-30.762,-27.832,0.000
1759592830.818,-168.457,-31.738,-34.180,-34.668,0.000
1759592830.822,-117.188,-32.715,-31.738,-34.668,0.000
1759592830.826,127.930,-31.250,-31.250,-35.645,0.000
1759592830.830,136.230,-34.668,-39.062,-34.180,0.000
1759592830.834,-125.977,-38.086,-38.574,-29.785,0.000
1759592830.838,-176.270,-40.039,-29.785,-31.738,0.000
1759592830.842,61.035,-30.273,-28.320,-35.156,0.000
1759592830.846,189.941,-27.344,-33.203,-33.691,0.000
1759592830.849,-51.758,-39.062,-37.109,-28.809,0.000
1759592830.853,-187.500,-40.527,-35.156,-33.203,0.000
1759592830.857,-7.812,-40.527,-38.574,-40.039,0.000
1759592830.861,196.289,-35.645,-38.574,-37.109,0.000
1759592830.865,31.250,-27.832,-32.715,-33.203,0.000
1759592830.869,-183.594,-36.133,-30.762,-33.691,0.000
1759592830.873,-82.520,-39.551,-41.992,-35.645,0.000
1759592830.877,143.066,-39.062,-45.410,-28.809,0.000
1759592830.881,62.500,-43.945,-38.574,-31.250,0.000
1759592830.885,-165.039,-39.551,-38.086,-44.434,0.000
1759592830.889,-149.902,-38.574,-41.992,-41.504,0.000
1759592830.892,101.562,-41.504,-44.434,-30.762,0.000
1759592830.896,137.207,-35.645,-41.992,-30.762,0.000
1759592830.900,-129.883,-36.133,-38.574,-30.762,0.000
1759592830.904,-202.148,-35.645,-40.527,-23.438,0.000
1759592830.908,18.066,-38.086,-47.852,-31.738,0.000
1759592830.912,168.457,-41.992,-46.875,-36.621,0.000
1759592830.916,-62.012,-37.598,-44.434,-29.297,0.000
1759592830.920,-219.238,-37.598,-40.039,-19.531,0.000
1759592830.924,-44.922,-40.039,-37.109,-18.555,0.000
1759592830.928,172.852,-32.715,-42.480,-20.996,0.000
1759592830.931,24.902,-30.762,-39.062,-18.066,0.000
1759592830.935,-187.500,-33.203,-39.551,-10.742,0.000
1759592830.939,-108.887,-31.738,-46.387,-8.301,0.000
1759592830.943,143.555,-29.297,-34.180,-22.461,0.000
1759592830.947,95.703,-30.273,-36.133,-26.367,0.000
1759592830.951,-165.039,-35.645,-46.387,-19.531,0.000
1759592830.955,-161.621,-36.133,-42.480,-16.113,0.000
1759592830.959,85.938,-33.691,-37.109,-11.719,0.000
1759592830.963,161.133,-31.250,-38.574,-7.812,0.000
1759592830.967,-85.938,-31.738,-40.039,-3.906,0.000
1759592830.971,-178.223,-36.621,-41.016,-3.418,0.000
1759592830.974,21.973,-40.039,-42.969,-16.602,0.000
1759592830.978,186.035,-42.480,-42.480,-25.879,0.000
1759592830.982,-21.973,-40.039,-43.945,-15.625,0.000
1759592830.986,-199.219,-40.039,-38.086,-21.973,0.000
1759592830.990,-57.617,-36.621,-35.645,-34.180,0.000
1759592830.994,176.270,-35.156,-41.504,-30.762,0.000
1759592830.998,52.734,-40.527,-37.598,-25.391,0.000
1759592831.002,-191.406,-36.133,-32.227,-19.531,0.000
1759592831.006,-119.141,-41.992,-38.086,-29.785,0.000
1759592831.010,112.305,-49.316,-42.969,-30.273,0.000
1759592831.014,64.453,-43.945,-39.551,-21.973,0.000
1759592831.017,-157.227,-40.039,-38.574,-20.996,0.000
1759592831.021,-172.363,-40.039,-41.992,-23.438,0.000
1759592831.025,62.988,-43.945,-47.363,-20.996,0.000
1759592831.029,160.156,-41.992,-49.805,-18.555,0.000
1759592831.033,-84.961,-40.039,-38.086,-22.461,0.000
1759592831.037,-193.359,-32.715,-35.645,-28.320,0.000
1759592831.041,-0.488,-26.367,-40.527,-33.203,0.000
1759592831.045,182.129,-31.738,-41.992,-39.062,0.000
1759592831.049,-6.836,-40.527,-45.898,-38.086,0.000
1759592831.053,-196.777,-39.551,-49.805,-29.785,0.000
1759592831.056,-67.383,-31.738,-49.805,-22.949,0.000
1759592831.060,161.133,-33.691,-49.805,-25.879,0.000
1759592831.064,42.969,-38.574,-53.223,-28.809,0.000
1759592831.068,-189.453,-40.039,-49.316,-25.391,0.000
1759592831.072,-150.879,-40.527,-51.758,-19.531,0.000
1759592831.076,104.980,-36.133,-51.270,-16.602,0.000
1759592831.080,127.930,-37.598,-41.992,-16.113,0.000
1759592831.084,-130.859,-41.504,-38.574,-12.695,0.000
1759592831.088,-179.199,-40.039,-41.992,-16.602,0.000
1759592831.092,55.664,-35.156,-43.945,-19.043,0.000
1759592831.096,176.758,-35.156,-38.086,-16.113,0.000
1759592831.099,-62.012,-44.922,-42.480,-19.043,0.000
1759592831.103,-196.289,-49.805,-47.852,-18.555,0.000
1759592831.107,-22.461,-47.363,-54.199,-18.066,0.000
1759592831.111,167.969,-42.969,-59.082,-27.832,0.000
1759592831.115,-13.184,-40.527,-54.199,-33.203,0.000
1759592831.119,-212.891,-40.527,-53.711,-29.297,0.000
1759592831.123,-104.492,-41.992,-47.852,-38.086,0.000
1759592831.127,138.672,-46.387,-47.852,-41.016,0.000
1759592831.131,58.105,-53.223,-55.176,-31.738,0.000
1759592831.135,-189.941,-49.805,-48.828,-29.785,0.000
1759592831.139,-171.387,-45.410,-41.992,-29.785,0.000
1759592831.142,82.520,-51.270,-49.316,-23.438,0.000
1759592831.146,133.789,-49.805,-52.734,-22.949,0.000
1759592831.150,-143.555,-41.992,-50.293,-22.461,0.000
1759592831.154,-209.473,-45.410,-50.293,-25.391,0.000
1759592831.158,23.438,-43.945,-51.758,-34.180,0.000
1759592831.162,155.273,-41.016,-55.664,-20.020,0.000
1759592831.166,-63.477,-45.410,-55.176,-13.184,0.000
1759592831.170,-220.215,-44.922,-49.805,-27.344,0.000
1759592831.174,-61.035,-42.969,-58.594,-35.156,0.000
1759592831.178,153.320,-47.363,-63.477,-41.504,0.000
1759592831.181,0.488,-41.504,-59.570,-31.250,0.000
1759592831.185,-218.750,-42.969,-59.570,-27.344,0.000
1759592831.189,-135.742,-49.805,-61.523,-29.297,0.000
1759592831.193,123.535,-46.875,-60.547,-26.855,0.000
1759592831.197,72.754,-44.434,-54.688,-33.691,0.000
1759592831.201,-191.895,-47.363,-59.570,-37.109,0.000
1759592831.205,-189.941,-47.852,-62.012,-34.180,0.000
1759592831.209,65.918,-44.922,-58.594,-26.855,0.000
1759592831.213,134.277,-45.898,-57.129,-28.320,0.000
1759592831.217,-123.535,-45.898,-54.688,-32.715,0.000
1759592831.221,-202.637,-51.270,-57.617,-34.668,0.000
1759592831.224,14.160,-55.176,-57.617,-32.227,0.000
1759592831.228,168.945,-44.922,-51.758,-30.762,0.000
1759592831.232,-48.340,-43.457,-52.734,-30.273,0.000
1759592831.236,-209.961,-48.828,-50.781,-22.949,0.000
1759592831.240,-56.152,-40.039,-46.387,-22.461,0.000
1759592831.244,166.016,-37.109,-43.945,-29.785,0.000
1759592831.248,24.902,-37.598,-47.852,-30.273,0.000
1759592831.252,-209.961,-40.039,-50.781,-18.066,0.000
1759592831.256,-149.902,-52.246,-50.293,-25.879,0.000
1759592831.260,106.934,-53.223,-55.176,-41.016,0.000
1759592831.264,93.750,-45.410,-51.270,-34.668,0.000
1759592831.267,-163.086,-42.969,-44.434,-28.809,0.000
1759592831.271,-186.523,-41.504,-41.504,-27.832,0.000
1759592831.275,49.805,-43.457,-38.574,-31.250,0.000
1759592831.279,150.391,-40.527,-40.527,-30.762,0.000
1759592831.283,-94.727,-34.668,-41.016,-23.926,0.000
1759592831.287,-201.172,-41.016,-39.551,-28.320,0.000
1759592831.291,-9.766,-48.340,-46.875,-40.527,0.000
1759592831.295,173.340,-39.551,-53.711,-37.109,0.000
1759592831.299,-10.254,-33.203,-54.199,-21.973,0.000
1759592831.303,-194.336,-38.574,-50.781,-21.484,0.000
1759592831.306,-65.918,-36.621,-43.945,-25.879,0.000
1759592831.310,176.270,-30.762,-51.758,-20.508,0.000
1759592831.314,70.312,-35.156,-59.082,-20.508,0.000
1759592831.318,-166.992,-35.645,-40.039,-30.762,0.000
1759592831.322,-125.488,-31.250,-34.668,-23.438,0.000
1759592831.326,127.930,-33.691,-45.410,-10.742,0.000
1759592831.330,130.371,-35.645,-51.758,-21.484,0.000
1759592831.334,-143.555,-38.086,-50.293,-29.785,0.000
1759592831.338,-180.664,-36.621,-46.387,-27.344,0.000
1759592831.342,60.547,-40.039,-48.828,-27.832,0.000
1759592831.346,176.270,-44.434,-50.293,-27.344,0.000
1759592831.349,-61.523,-38.086,-47.852,-16.113,0.000
1759592831.353,-188.477,-35.645,-47.363,-19.043,0.000
1759592831.357,-17.090,-37.598,-55.664,-21.484,0.000
1759592831.361,182.129,-39.551,-53.223,-19.043,0.000
1759592831.365,9.766,-42.480,-50.293,-30.273,0.000
1759592831.369,-202.637,-38.574,-60.059,-32.715,0.000
1759592831.373,-100.586,-39.062,-57.617,-29.297,0.000
1759592831.377,144.043,-43.945,-52.734,-34.668,0.000
1759592831.381,64.941,-46.387,-50.293,-33.203,0.000
1759592831.385,-184.570,-45.410,-48.828,-22.949,0.000
1759592831.389,-154.297,-41.992,-59.570,-32.227,0.000
1759592831.392,77.637,-40.527,-58.594,-38.574,0.000
1759592831.396,109.375,-34.180,-48.828,-40.039,0.000
1759592831.400,-126.465,-36.621,-51.758,-32.715,0.000
1759592831.404,-196.777,-43.945,-51.270,-21.973,0.000
1759592831.408,28.809,-34.668,-36.621,-29.297,0.000
1759592831.412,168.457,-39.062,-36.621,-38.086,0.000
1759592831.416,-70.801,-63.965,-45.410,-42.969,0.000
1759592831.420,-229.492,-64.453,-48.340,-55.664,0.000
1759592831.424,-52.734,-49.805,-41.992,-49.805,0.000
1759592831.428,160.156,-44.922,-44.434,-34.668,0.000
1759592831.431,-2.930,-37.109,-49.805,-26.367,0.000
1759592831.435,-219.238,-50.781,-52.246,-36.621,0.000
1759592831.439,-158.203,-81.055,-49.316,-72.754,0.000
1759592831.443,104.980,-75.684,-39.551,-60.059,0.000
1759592831.447,86.914,-51.758,-52.246,-20.020,0.000
1759592831.451,-189.453,-41.504,-52.246,-36.133,0.000
1759592831.455,-210.449,-49.805,-36.621,-68.848,0.000
1759592831.459,61.035,-61.035,-38.574,-53.711,0.000
1759592831.463,104.980,-64.453,-34.180,-64.453,0.000
1759592831.467,-214.355,-118.164,6.836,-119.629,0.000
1759592831.471,-271.484,-145.020,28.809,-112.305,0.000
1759592831.474,7.324,-74.219,20.020,-79.590,0.000
1759592831.478,109.863,-28.320,-21.973,-91.309,0.000
1759592831.482,-177.246,-32.227,-15.625,-123.535,0.000
1759592831.486,-347.168,-60.547,33.203,-143.066,0.000
1759592831.490,-234.375,-87.891,4.395,-198.730,0.000
1759592831.494,2.441,-86.914,58.594,-208.984,0.000
1759592831.498,-118.652,-68.848,94.238,-174.316,0.000
1759592831.502,-374.512,-77.637,41.016,-187.988,0.000
1759592831.506,-399.902,-187.988,58.105,-286.133,0.000
1759592831.510,-161.621,-193.359,94.238,-295.410,0.000
1759592831.514,-70.801,-90.332,88.867,-194.336,0.000
1759592831.517,-316.895,-29.297,130.859,-170.898,0.000
1759592831.521,-389.648,-45.410,187.988,-222.168,0.000
1759592831.525,-176.270,-94.727,194.824,-260.742,0.000
1759592831.529,-46.387,-41.016,150.879,-214.844,0.000
1759592831.533,-287.109,14.648,128.418,-205.566,0.000
1759592831.537,-388.672,-70.312,114.746,-197.266,0.000
1759592831.541,-190.430,-104.980,42.969,-184.082,0.000
1759592831.545,-39.551,-48.340,-37.598,-212.891,0.000
1759592831.549,-263.672,-51.270,-124.512,-241.211,0.000
1759592831.553,-427.246,-66.406,-150.879,-214.355,0.000
1759592831.556,-236.816,-62.500,-258.301,-145.020,0.000
1759592831.560,13.672,-33.691,-390.137,-120.605,0.000
1759592831.564,-97.656,-96.680,-441.406,-129.883,0.000
1759592831.568,-357.910,-179.199,-504.883,-135.742,0.000
1759592831.572,-317.383,-137.695,-542.480,-148.926,0.000
1759592831.576,-33.203,-14.648,-618.652,-141.113,0.000
1759592831.580,17.578,40.039,-697.754,-87.891,0.000
1759592831.584,-233.398,-15.137,-731.445,-83.008,0.000
1759592831.588,-306.641,-50.293,-775.879,-114.746,0.000
1759592831.592,-73.242,-83.496,-824.707,-129.395,0.000
1759592831.596,62.012,-115.234,-848.633,-114.746,0.000
1759592831.599,-169.434,-101.562,-866.211,-91.309,0.000
1759592831.603,-270.996,-80.078,-890.625,-59.570,0.000
1759592831.607,-53.223,-57.129,-906.250,-27.344,0.000
1759592831.611,134.766,-38.086,-934.082,-52.246,0.000
1759592831.615,-70.312,-61.523,-919.434,-83.496,0.000
1759592831.619,-248.047,-211.426,-897.949,-43.945,0.000
1759592831.623,-116.699,-166.992,-928.711,-18.066,0.000
1759592831.627,125.488,34.180,-937.012,-33.203,0.000
1759592831.631,36.133,12.207,-923.828,-35.645,0.000
1759592831.635,-216.309,-35.156,-900.879,-47.852,0.000
1759592831.639,-169.434,-36.621,-884.277,-36.621,0.000
1759592831.642,108.398,-40.039,-886.719,-0.977,0.000
1759592831.646,149.414,-48.828,-864.258,20.020,0.000
1759592831.650,-128.418,-51.758,-839.844,1.953,0.000
1759592831.654,-199.707,-67.871,-827.637,-21.484,0.000
1759592831.658,30.762,-69.336,-807.129,-17.578,0.000
1759592831.662,164.551,-66.895,-771.973,-16.602,0.000
1759592831.666,-42.480,-76.172,-735.840,5.859,0.000
1759592831.670,-176.758,-86.914,-728.027,11.230,0.000
1759592831.674,-28.809,-91.797,-701.172,-9.277,0.000
1759592831.678,195.312,-77.637,-670.898,8.301,0.000
1759592831.681,63.477,-60.547,-646.973,26.855,0.000
1759592831.685,-157.715,-68.848,-619.629,24.902,0.000
1759592831.689,-84.473,-85.449,-594.238,9.277,0.000
1759592831.693,175.781,-77.637,-551.758,10.254,0.000
1759592831.697,135.254,-65.918,-513.672,21.484,0.000
1759592831.701,-109.863,-66.895,-475.098,24.414,0.000
1759592831.705,-108.887,-68.848,-432.617,24.902,0.000
1759592831.709,126.953,-69.336,-374.512,18.066,0.000
1759592831.713,191.895,-56.152,-310.059,24.414,0.000
1759592831.717,-65.918,-51.270,-242.188,31.738,0.000
1759592831.721,-145.508,-49.316,-165.039,36.133,0.000
1759592831.724,72.754,-41.016,-69.336,43.457,0.000
1759592831.728,233.887,-39.062,46.387,47.852,0.000
1759592831.732,25.391,-38.574,148.438,59.082,0.000
1759592831.736,-141.113,-26.855,258.789,60.547,0.000
1759592831.740,11.230,-12.207,373.535,58.105,0.000
1759592831.744,245.605,-7.324,468.750,68.359,0.000
1759592831.748,124.512,-17.578,559.082,72.754,0.000
1759592831.752,-104.004,-22.949,625.488,76.660,0.000
1759592831.756,-36.621,-11.230,670.410,78.125,0.000
1759592831.760,224.609,-2.441,705.566,84.473,0.000
1759592831.764,199.219,-1.465,738.770,98.633,0.000
1759592831.767,-53.711,-0.488,765.625,99.121,0.000
1759592831.771,-67.871,-4.395,776.367,95.703,0.000
1759592831.775,169.434,0.488,773.438,97.168,0.000
1759592831.779,260.254,-8.789,772.949,96.191,0.000
1759592831.783,13.184,-40.039,767.578,91.309,0.000
1759592831.787,-91.797,-19.043,751.465,92.773,0.000
1759592831.791,105.469,4.883,736.816,91.797,0.000
1759592831.795,287.598,4.883,723.145,89.355,0.000
1759592831.799,95.215,8.789,708.984,98.633,0.000
1759592831.803,-87.891,5.859,688.965,99.121,0.000
1759592831.806,34.180,-2.441,659.180,88.379,0.000
1759592831.810,266.113,6.348,628.906,77.637,0.000
1759592831.814,163.086,4.395,605.469,73.730,0.000
1759592831.818,-80.566,-15.625,576.172,70.312,0.000
1759592831.822,-37.109,-16.602,540.039,70.312,0.000
1759592831.826,230.957,-13.672,520.508,76.172,0.000
1759592831.830,231.934,-13.672,505.859,65.918,0.000
1759592831.834,-41.992,-3.906,473.145,55.176,0.000
1759592831.838,-71.289,0.977,448.242,59.082,0.000
1759592831.842,158.691,2.441,431.152,56.152,0.000
1759592831.846,262.695,-8.301,410.156,51.758,0.000
1759592831.849,24.414,-10.254,387.207,56.641,0.000
1759592831.853,-94.238,-8.301,367.676,46.875,0.000
1759592831.857,81.055,-16.113,351.074,35.645,0.000
1759592831.861,271.484,-21.973,335.449,40.039,0.000
1759592831.865,99.609,-25.879,319.824,46.875,0.000
1759592831.869,-103.516,-25.879,305.176,45.898,0.000
1759592831.873,0.977,-29.297,299.805,29.785,0.000
1759592831.877,243.164,-29.297,292.969,34.180,0.000
1759592831.881,163.574,-19.043,282.715,47.363,0.000
1759592831.885,-92.285,-20.508,274.414,40.527,0.000
1759592831.889,-72.754,-22.461,264.648,30.762,0.000
1759592831.892,181.641,-22.461,251.465,28.809,0.000
1759592831.896,220.215,-22.461,240.234,33.203,0.000
1759592831.900,-41.504,-20.996,232.422,32.715,0.000
1759592831.904,-100.098,-21.973,227.051,32.715,0.000
1759592831.908,112.793,-21.484,214.844,29.297,0.000
1759592831.912,242.676,-19.531,195.801,34.180,0.000
1759592831.916,10.742,-22.949,189.941,39.062,0.000
1759592831.920,-156.250,-29.297,194.336,20.996,0.000
1759592831.924,10.742,-29.785,180.664,14.648,0.000
1759592831.928,229.980,-27.344,162.598,18.555,0.000
1759592831.931,78.125,-25.879,158.691,15.625,0.000
1759592831.935,-146.973,-21.973,153.320,6.836,0.000
1759592831.939,-72.266,-20.020,136.719,4.395,0.000
1759592831.943,170.898,-26.855,125.977,1.953,0.000
1759592831.947,121.094,-32.715,123.535,0.488,0.000
1759592831.951,-126.465,-32.227,119.629,4.395,0.000
1759592831.955,-122.559,-28.809,111.816,1.953,0.000
1759592831.959,131.836,-27.344,106.445,4.395,0.000
1759592831.963,185.547,-34.180,110.352,-1.953,0.000
1759592831.967,-93.262,-44.434,104.980,-17.090,0.000
1759592831.971,-178.711,-34.668,93.750,-12.695,0.000
1759592831.974,42.480,-23.438,90.332,-1.953,0.000
1759592831.978,202.148,-27.344,93.750,-6.348,0.000
1759592831.982,-13.184,-35.645,91.797,-12.207,0.000
1759592831.986,-170.898,-35.645,82.031,-7.324,0.000
1759592831.990,-23.438,-27.832,74.219,-7.324,0.000
1759592831.994,191.895,-30.762,67.383,-12.695,0.000
1759592831.998,49.805,-40.527,67.383,-15.137,0.000
1759592832.002,-183.105,-38.574,64.453,-2.441,0.000
1759592832.006,-108.398,-40.527,62.988,1.465,0.000
1759592832.010,149.414,-42.969,64.453,-8.301,0.000
1759592832.014,126.953,-38.086,57.129,-5.371,0.000
1759592832.017,-129.395,-35.156,53.223,0.000,0.000
1759592832.021,-145.996,-39.062,46.875,-0.488,0.000
1759592832.025,86.914,-46.387,34.180,-10.254,0.000
1759592832.029,172.852,-45.410,36.621,-12.207,0.000
1759592832.033,-71.777,-40.039,44.434,-6.836,0.000
1759592832.037,-181.152,-41.992,44.434,-12.207,0.000
1759592832.041,14.648,-44.922,39.551,-9.277,0.000
1759592832.045,199.219,-42.969,31.250,-4.395,0.000
1759592832.049,3.906,-40.527,27.344,-11.230,0.000
1759592832.053,-181.641,-40.527,31.250,-11.230,0.000
1759592832.056,-58.105,-36.133,32.715,-17.090,0.000
1759592832.060,169.922,-38.574,24.902,-25.391,0.000
1759592832.064,58.105,-47.363,20.020,-24.414,0.000
1759592832.068,-183.594,-49.805,24.414,-28.809,0.000
1759592832.072,-136.719,-48.828,21.973,-28.809,0.000
