timestamps,TP9,AF7,AF8,TP10,Right AUX
1759592705.657,-115.723,-29.297,-19.043,-16.113,0.000
1759592705.661,90.332,-31.738,-22.949,-6.836,0.000
1759592705.665,89.844,-28.320,-16.602,-4.883,0.000
1759592705.669,-114.258,-24.414,-12.695,-1.465,0.000
1759592705.673,-148.438,-28.809,-20.996,0.000,0.000
1759592705.677,49.316,-32.715,-25.879,-6.348,0.000
1759592705.681,112.305,-29.297,-24.414,-1.465,0.000
1759592705.685,-98.145,-33.203,-24.414,-9.277,0.000
1759592705.689,-174.316,-41.504,-32.227,3.418,0.000
1759592705.693,-24.902,-41.504,-26.855,10.254,0.000
1759592705.697,125.000,-38.574,-20.508,-9.766,0.000
1759592705.700,-19.043,-34.180,-23.926,-8.789,0.000
1759592705.704,-151.855,-23.926,-16.113,3.906,0.000
1759592705.708,-53.711,-19.043,-12.695,-2.441,0.000
1759592705.712,103.516,-20.020,-19.531,-20.508,0.000
1759592705.716,30.762,-20.020,-25.879,-23.438,0.000
1759592705.720,-145.996,-21.484,-20.996,-11.719,0.000
1759592705.724,-113.281,-24.414,-22.949,-5.371,0.000
1759592705.728,86.914,-27.832,-21.973,-13.672,0.000
1759592705.732,83.496,-32.227,-23.926,-20.996,0.000
1759592705.736,-125.977,-30.273,-29.297,-5.859,0.000
1759592705.739,-129.883,-27.832,-10.254,-14.160,0.000
1759592705.743,54.688,-33.203,-4.883,-14.648,0.000
1759592705.747,106.445,-30.273,-16.113,-10.254,0.000
1759592705.751,-80.078,-28.320,-17.578,-30.762,0.000
1759592705.755,-163.574,-29.297,-15.625,-31.250,0.000
1759592705.759,-20.020,-28.320,-15.137,-21.484,0.000
1759592705.763,141.602,-29.297,-18.555,-26.855,0.000
1759592705.767,23.926,-32.227,-20.996,-27.832,0.000
1759592705.771,-145.020,-32.227,-20.508,-21.973,0.000
1759592705.775,-76.172,-28.809,-18.066,-20.508,0.000
1759592705.779,115.723,-33.203,-28.809,-13.184,0.000
1759592705.782,39.551,-37.109,-29.297,-8.789,0.000
1759592705.786,-153.320,-34.180,-14.160,-27.344,0.000
1759592705.790,-121.582,-31.738,-21.484,-41.016,0.000
1759592705.794,72.266,-34.180,-25.391,-27.832,0.000
1759592705.798,104.980,-27.832,-17.090,-20.020,0.000
1759592705.802,-103.516,-24.902,-17.578,-23.926,0.000
1759592705.806,-143.555,-29.785,-16.602,-25.879,0.000
1759592705.810,41.992,-26.855,-18.555,-11.719,0.000
1759592705.814,126.953,-24.414,-19.531,-8.789,0.000
1759592705.818,-47.852,-24.902,-17.090,-14.648,0.000
1759592705.822,-146.973,-28.320,-20.996,-4.883,0.000
1759592705.825,-19.043,-31.250,-25.879,9.766,0.000
1759592705.829,147.949,-26.367,-15.625,-3.906,0.000
1759592705.833,31.738,-25.879,-13.672,-16.602,0.000
1759592705.837,-151.367,-32.227,-22.461,-17.090,0.000
1759592705.841,-95.703,-33.203,-22.949,-16.602,0.000
1759592705.845,96.680,-26.855,-17.578,-15.625,0.000
1759592705.849,67.383,-25.879,-19.531,-23.926,0.000
1759592705.853,-129.395,-27.344,-24.414,-12.695,0.000
1759592705.857,-134.277,-28.809,-23.926,-8.301,0.000
1759592705.861,69.824,-27.832,-21.484,-9.766,0.000
1759592705.864,106.445,-21.973,-21.484,-3.418,0.000
1759592705.868,-107.910,-30.762,-29.785,-5.371,0.000
1759592705.872,-158.203,-34.668,-28.809,-1.953,0.000
1759592705.876,8.789,-23.438,-19.043,-15.137,0.000
1759592705.880,114.258,-24.902,-22.949,-32.227,0.000
1759592705.884,-49.805,-29.297,-24.902,-32.715,0.000
1759592705.888,-172.852,-26.367,-19.531,-29.297,0.000
1759592705.892,-63.477,-25.391,-15.137,-27.344,0.000
1759592705.896,110.352,-26.367,-20.508,-24.902,0.000
1759592705.900,6.836,-25.879,-21.484,-20.996,0.000
1759592705.904,-161.621,-24.902,-16.113,-19.043,0.000
1759592705.907,-94.727,-27.832,-17.578,-33.203,0.000
1759592705.911,90.820,-33.691,-24.414,-38.086,0.000
1759592705.915,71.777,-33.691,-29.297,-25.879,0.000
1759592705.919,-124.512,-28.320,-19.043,-28.809,0.000
1759592705.923,-155.273,-23.438,-14.648,-27.832,0.000
1759592705.927,28.809,-26.367,-25.391,-19.043,0.000
1759592705.931,80.566,-25.879,-24.902,-24.414,0.000
1759592705.935,-99.121,-20.996,-20.020,-28.809,0.000
1759592705.939,-172.852,-24.902,-20.996,-26.367,0.000
1759592705.943,-28.809,-24.414,-26.855,-23.926,0.000
1759592705.947,119.141,-22.461,-24.902,-23.438,0.000
1759592705.950,-29.297,-24.414,-19.043,-36.133,0.000
1759592705.954,-175.781,-27.832,-22.461,-37.598,0.000
1759592705.958,-55.176,-28.320,-35.156,-18.555,0.000
1759592705.962,125.977,-29.297,-32.715,-20.508,0.000
1759592705.966,5.859,-26.367,-18.066,-30.273,0.000
1759592705.970,-186.035,-20.020,-28.320,-18.555,0.000
1759592705.974,-132.812,-20.996,-30.273,-14.648,0.000
1759592705.978,66.895,-19.043,-23.926,-17.090,0.000
1759592705.982,93.750,-18.066,-26.367,-17.578,0.000
1759592705.986,-92.773,-20.020,-27.832,-12.207,0.000
1759592705.989,-141.602,-20.996,-22.949,-4.395,0.000
1759592705.993,41.016,-24.414,-19.531,-9.277,0.000
1759592705.997,128.906,-24.414,-19.531,-5.859,0.000
1759592706.001,-57.617,-20.996,-29.785,-12.207,0.000
1759592706.005,-164.551,-18.555,-42.480,-25.391,0.000
1759592706.009,-30.762,-20.996,-39.062,-14.648,0.000
1759592706.013,133.789,-24.902,-32.227,-8.789,0.000
1759592706.017,-0.488,-26.855,-39.062,-17.578,0.000
1759592706.021,-163.086,-24.902,-41.016,-15.137,0.000
1759592706.025,-75.195,-20.020,-30.762,-16.113,0.000
1759592706.029,116.211,-20.996,-29.785,-18.066,0.000
1759592706.032,85.938,-21.973,-29.297,-3.906,0.000
1759592706.036,-129.395,-18.066,-27.344,-6.836,0.000
1759592706.040,-140.625,-15.625,-23.438,-18.066,0.000
1759592706.044,75.195,-21.484,-24.902,-18.066,0.000
1759592706.048,104.492,-25.391,-31.250,-13.672,0.000
1759592706.052,-111.816,-31.738,-34.180,-14.160,0.000
1759592706.056,-170.410,-36.621,-28.320,-19.531,0.000
1759592706.060,8.301,-27.344,-24.902,-21.973,0.000
1759592706.064,124.023,-29.297,-36.621,-15.137,0.000
1759592706.068,-41.504,-31.738,-32.715,-14.160,0.000
1759592706.072,-146.973,-29.785,-19.043,-30.273,0.000
1759592706.075,-37.598,-32.715,-24.414,-31.250,0.000
1759592706.079,106.934,-27.344,-27.832,-28.809,0.000
1759592706.083,0.488,-26.855,-24.414,-21.484,0.000
1759592706.087,-156.738,-29.785,-23.926,-17.578,0.000
1759592706.091,-91.797,-28.809,-28.320,-20.508,0.000
1759592706.095,117.188,-33.203,-33.203,-14.648,0.000
1759592706.099,62.988,-36.133,-35.645,-17.090,0.000
1759592706.103,-147.461,-36.621,-35.645,-34.668,0.000
1759592706.107,-135.254,-39.551,-39.062,-26.855,0.000
1759592706.111,49.805,-37.598,-41.016,-11.719,0.000
1759592706.114,86.914,-36.133,-28.809,-23.926,0.000
1759592706.118,-98.633,-34.668,-23.926,-20.996,0.000
1759592706.122,-162.598,-30.273,-27.344,-4.395,0.000
1759592706.126,-9.277,-26.855,-28.320,-10.742,0.000
1759592706.130,142.090,-24.902,-21.484,-16.113,0.000
1759592706.134,-21.484,-23.438,-23.438,-14.648,0.000
1759592706.138,-159.668,-22.461,-30.762,-6.836,0.000
1759592706.142,-31.738,-23.926,-29.297,-10.742,0.000
1759592706.146,146.484,-22.949,-29.785,-20.020,0.000
1759592706.150,19.531,-25.391,-29.297,-25.879,0.000
1759592706.154,-187.500,-26.855,-35.156,-23.438,0.000
1759592706.157,-134.766,-28.320,-41.016,-18.066,0.000
1759592706.161,68.359,-38.574,-30.762,-32.715,0.000
1759592706.165,81.055,-33.691,-30.273,-35.156,0.000
1759592706.169,-130.859,-31.738,-34.668,-29.297,0.000
1759592706.173,-153.809,-36.621,-28.320,-20.508,0.000
1759592706.177,39.551,-34.180,-27.344,-26.367,0.000
1759592706.181,93.262,-31.738,-30.273,-39.551,0.000
1759592706.185,-86.426,-26.855,-22.949,-30.762,0.000
1759592706.189,-173.340,-27.344,-20.996,-26.367,0.000
1759592706.193,-20.020,-38.086,-24.414,-18.066,0.000
1759592706.197,122.559,-38.574,-23.438,-20.996,0.000
1759592706.200,-20.996,-32.715,-27.832,-20.508,0.000
1759592706.204,-157.227,-33.691,-25.391,-16.113,0.000
1759592706.208,-59.570,-31.738,-24.414,-19.043,0.000
1759592706.212,110.840,-29.297,-32.715,-11.719,0.000
1759592706.216,28.809,-32.227,-30.762,-8.301,0.000
1759592706.220,-159.180,-31.738,-22.949,-17.578,0.000
1759592706.224,-126.953,-33.691,-27.344,-20.996,0.000
1759592706.228,69.824,-35.645,-36.133,-21.484,0.000
1759592706.232,83.496,-34.668,-31.738,-19.531,0.000
1759592706.236,-134.277,-37.109,-24.902,-12.207,0.000
1759592706.239,-166.992,-30.762,-23.926,-12.695,0.000
1759592706.243,36.133,-24.902,-31.250,-13.184,0.000
1759592706.247,113.281,-24.414,-28.809,-7.324,0.000
1759592706.251,-77.148,-23.926,-18.555,-11.230,0.000
1759592706.255,-173.828,-26.367,-25.391,-14.160,0.000
1759592706.259,-54.688,-27.344,-31.250,-20.996,0.000
1759592706.263,104.980,-28.809,-31.738,-20.508,0.000
1759592706.267,-12.207,-30.273,-24.414,-14.648,0.000
1759592706.271,-157.227,-27.832,-20.996,-19.043,0.000
1759592706.275,-74.707,-29.297,-20.508,-15.625,0.000
1759592706.279,108.398,-24.414,-17.090,-11.230,0.000
1759592706.282,34.668,-21.484,-19.531,-20.996,0.000
1759592706.286,-169.434,-22.949,-30.273,-20.996,0.000
1759592706.290,-142.578,-23.926,-36.133,-9.277,0.000
1759592706.294,61.523,-26.367,-28.809,-14.648,0.000
1759592706.298,104.004,-28.320,-24.902,-28.809,0.000
1759592706.302,-90.332,-25.391,-26.367,-19.043,0.000
1759592706.306,-171.875,-26.367,-23.926,-10.254,0.000
1759592706.310,-26.855,-35.156,-24.414,-16.113,0.000
1759592706.314,120.117,-30.273,-26.855,-15.625,0.000
1759592706.318,-30.762,-25.879,-26.855,-4.883,0.000
1759592706.322,-167.480,-31.250,-26.855,-6.348,0.000
1759592706.325,-57.617,-32.227,-32.227,-19.531,0.000
1759592706.329,102.539,-27.344,-31.250,-17.090,0.000
1759592706.333,-0.488,-24.902,-36.133,-4.395,0.000
1759592706.337,-149.902,-28.320,-31.738,0.977,0.000
1759592706.341,-69.336,-26.367,-15.625,-13.672,0.000
1759592706.345,95.703,-25.391,-29.785,-21.973,0.000
1759592706.349,46.387,-30.273,-35.645,-15.625,0.000
1759592706.353,-123.047,-32.227,-30.762,-17.578,0.000
1759592706.357,-139.648,-26.367,-28.809,-32.227,0.000
1759592706.361,44.434,-23.438,-32.715,-34.668,0.000
1759592706.364,102.539,-28.809,-31.738,-19.043,0.000
1759592706.368,-90.332,-30.273,-23.438,-10.742,0.000
1759592706.372,-152.344,-29.297,-27.344,-16.602,0.000
1759592706.376,17.578,-30.762,-28.809,-8.789,0.000
1759592706.380,145.508,-29.785,-27.832,-3.418,0.000
1759592706.384,-14.160,-29.297,-24.414,-9.277,0.000
1759592706.388,-150.879,-24.902,-18.066,-10.254,0.000
1759592706.392,-53.711,-24.902,-21.484,9.766,0.000
1759592706.396,142.578,-23.926,-24.414,7.812,0.000
1759592706.400,50.781,-20.508,-13.184,-12.207,0.000
1759592706.404,-147.949,-23.438,-2.930,-20.020,0.000
1759592706.407,-119.141,-28.809,-10.742,-26.367,0.000
1759592706.411,96.191,-35.156,-13.184,-11.719,0.000
1759592706.415,82.520,-36.133,-4.395,-5.371,0.000
1759592706.419,-131.348,-31.738,-6.348,-8.789,0.000
1759592706.423,-140.625,-40.527,-9.766,-3.906,0.000
1759592706.427,43.945,-47.363,-17.578,-3.906,0.000
1759592706.431,123.047,-34.668,-19.531,-5.371,0.000
1759592706.435,-53.223,-24.902,-8.789,-4.395,0.000
1759592706.439,-148.438,-35.156,-15.625,6.348,0.000
1759592706.443,-7.324,-36.133,-15.625,13.184,0.000
1759592706.447,135.254,-24.902,-3.418,10.254,0.000
1759592706.450,-11.719,-29.297,-8.789,-2.930,0.000
1759592706.454,-151.855,-32.227,-14.160,-11.719,0.000
1759592706.458,-57.617,-25.879,-15.625,-11.719,0.000
1759592706.462,121.094,-25.391,-18.066,-17.090,0.000
1759592706.466,49.805,-28.320,-14.160,-14.160,0.000
1759592706.470,-134.766,-27.832,-9.766,-8.301,0.000
1759592706.474,-102.051,-30.273,-9.766,-8.789,0.000
1759592706.478,91.309,-32.715,-10.742,-12.695,0.000
1759592706.482,83.496,-25.391,-13.184,-2.441,0.000
1759592706.486,-97.168,-30.273,-23.438,4.883,0.000
1759592706.489,-122.559,-34.180,-16.602,-8.789,0.000
1759592706.493,33.203,-21.973,-14.648,-11.230,0.000
1759592706.497,144.043,-20.996,-23.926,-6.348,0.000
1759592706.501,-31.250,-27.832,-24.414,-4.883,0.000
1759592706.505,-155.273,-27.832,-19.531,-7.812,0.000
1759592706.509,-7.324,-22.461,-22.461,-3.418,0.000
1759592706.513,158.203,-22.949,-28.320,1.953,0.000
1759592706.517,11.230,-25.391,-28.809,7.324,0.000
1759592706.521,-158.203,-23.438,-30.273,7.324,0.000
1759592706.525,-73.730,-19.043,-23.926,-0.977,0.000
1759592706.529,134.766,-17.090,-29.785,7.324,0.000
1759592706.532,80.566,-16.113,-33.203,20.508,0.000
1759592706.536,-130.371,-17.578,-18.066,11.719,0.000
1759592706.540,-101.562,-17.090,-19.531,4.395,0.000
1759592706.544,100.586,-20.020,-29.297,2.441,0.000
1759592706.548,109.375,-26.367,-28.809,-2.930,0.000
1759592706.552,-109.863,-27.832,-28.320,-1.953,0.000
1759592706.556,-156.738,-30.273,-36.133,2.441,0.000
1759592706.560,7.324,-30.273,-40.527,-7.324,0.000
1759592706.564,106.934,-32.227,-38.086,-19.531,0.000
1759592706.568,-57.617,-34.668,-35.645,-27.344,0.000
1759592706.572,-197.754,-32.715,-36.621,-43.457,0.000
1759592706.575,-91.797,-27.344,-34.180,-50.781,0.000
1759592706.579,64.453,-33.691,-24.414,-63.965,0.000
1759592706.583,-34.668,-35.645,-23.926,-70.801,0.000
1759592706.587,-188.477,-28.809,-25.391,-63.477,0.000
1759592706.591,-138.672,-28.320,-23.438,-71.777,0.000
1759592706.595,37.598,-27.344,-20.020,-72.754,0.000
1759592706.599,-5.859,-20.996,-18.066,-62.500,0.000
1759592706.603,-182.129,-20.020,-23.926,-63.477,0.000
1759592706.607,-168.945,-26.367,-25.879,-50.781,0.000
1759592706.611,21.973,-25.879,-24.414,-42.480,0.000
1759592706.614,88.379,-25.391,-29.297,-43.945,0.000
1759592706.618,-108.887,-33.203,-34.668,-30.762,0.000
1759592706.622,-181.152,-33.691,-31.738,-23.926,0.000
1759592706.626,-7.812,-24.414,-24.414,-33.691,0.000
1759592706.630,137.695,-23.438,-27.832,-23.926,0.000
1759592706.634,-26.855,-31.738,-27.832,-18.066,0.000
1759592706.638,-184.570,-35.156,-25.879,-20.996,0.000
1759592706.642,-76.660,-38.574,-24.414,-20.020,0.000
1759592706.646,112.305,-33.203,-26.367,-6.348,0.000
1759592706.650,21.484,-29.297,-25.391,-9.277,0.000
1759592706.654,-145.508,-25.391,-22.949,-14.160,0.000
1759592706.657,-91.797,-21.973,-24.902,-2.441,0.000
1759592706.661,104.004,-26.855,-33.203,2.441,0.000
1759592706.665,85.938,-33.203,-32.715,-3.418,0.000
1759592706.669,-125.488,-36.133,-27.832,-8.789,0.000
1759592706.673,-124.512,-38.574,-29.785,-2.930,0.000
1759592706.677,42.969,-35.645,-32.715,-10.254,0.000
1759592706.681,108.887,-32.715,-37.109,-9.766,0.000
1759592706.685,-70.801,-28.320,-28.320,-10.742,0.000
1759592706.689,-158.691,-20.996,-20.020,-15.137,0.000
1759592706.693,-18.066,-22.461,-25.391,-12.207,0.000
1759592706.697,123.535,-28.320,-29.297,-9.766,0.000
1759592706.700,-8.301,-29.785,-20.508,-4.395,0.000
1759592706.704,-153.320,-30.273,-20.020,-8.301,0.000
1759592706.708,-57.129,-31.738,-33.691,-7.324,0.000
1759592706.712,132.812,-36.621,-28.320,-1.953,0.000
1759592706.716,58.105,-38.574,-20.996,-6.836,0.000
1759592706.720,-125.977,-30.762,-27.344,-0.488,0.000
1759592706.724,-108.398,-36.133,-25.391,0.488,0.000
1759592706.728,76.172,-39.551,-20.996,-2.441,0.000
1759592706.732,123.047,-32.715,-14.648,-2.441,0.000
1759592706.736,-90.820,-34.668,-18.066,-5.371,0.000
1759592706.739,-155.762,-36.621,-21.973,-2.441,0.000
1759592706.743,24.414,-35.156,-18.066,-13.184,0.000
1759592706.747,119.141,-31.738,-14.648,-20.996,0.000
1759592706.751,-50.293,-29.297,-18.066,-3.418,0.000
1759592706.755,-160.156,-36.621,-25.391,7.812,0.000
1759592706.759,-45.898,-34.668,-22.949,-5.859,0.000
1759592706.763,128.906,-25.879,-20.020,-18.555,0.000
1759592706.767,23.438,-29.785,-23.926,-6.348,0.000
1759592706.771,-160.156,-35.645,-26.367,-8.789,0.000
1759592706.775,-93.262,-35.645,-17.578,-20.508,0.000
1759592706.779,109.375,-33.691,-19.531,-21.973,0.000
1759592706.782,48.340,-34.668,-26.855,-17.578,0.000
1759592706.786,-137.207,-31.738,-19.531,-6.348,0.000
1759592706.790,-101.562,-26.367,-9.766,-21.973,0.000
1759592706.794,68.848,-26.855,-13.184,-28.809,0.000
1759592706.798,84.473,-28.320,-22.949,-18.555,0.000
1759592706.802,-107.422,-28.809,-28.320,-20.508,0.000
1759592706.806,-166.992,-27.344,-21.484,-33.203,0.000
1759592706.810,0.488,-26.367,-21.973,-36.621,0.000
1759592706.814,116.699,-27.344,-37.598,-18.555,0.000
1759592706.818,-40.527,-22.949,-31.250,-18.555,0.000
1759592706.821,-172.852,-20.996,-19.531,-30.762,0.000
1759592706.825,-72.266,-25.879,-29.785,-37.109,0.000
1759592706.829,120.605,-26.855,-32.715,-43.945,0.000
1759592706.833,14.648,-28.809,-29.785,-34.668,0.000
1759592706.837,-176.270,-30.273,-23.926,-26.367,0.000
1759592706.841,-125.977,-32.227,-30.273,-26.855,0.000
1759592706.845,71.289,-36.133,-33.203,-32.715,0.000
1759592706.849,66.895,-28.809,-26.855,-36.621,0.000
1759592706.853,-147.949,-27.832,-24.902,-33.691,0.000
1759592706.857,-166.504,-30.762,-26.367,-30.273,0.000
1759592706.861,59.570,-33.691,-33.203,-8.301,0.000
1759592706.864,113.281,-36.621,-26.367,-6.348,0.000
1759592706.868,-93.262,-32.715,-19.043,-17.578,0.000
1759592706.872,-149.414,-33.203,-16.113,-8.789,0.000
1759592706.876,-4.395,-32.227,-13.184,-14.648,0.000
1759592706.880,133.789,-29.297,-7.812,-5.859,0.000
1759592706.884,-11.230,-25.391,-7.324,9.277,0.000
1759592706.888,-140.137,-25.391,-12.695,1.953,0.000
1759592706.892,-28.320,-23.438,-18.066,-2.441,0.000
1759592706.896,131.348,-24.902,-23.926,-8.789,0.000
1759592706.900,37.109,-30.762,-19.043,-9.277,0.000
1759592706.904,-133.789,-29.297,-22.461,0.000,0.000
1759592706.907,-89.355,-32.227,-20.996,4.883,0.000
1759592706.911,106.445,-35.645,-6.836,-4.883,0.000
1759592706.915,86.426,-29.297,-9.766,-6.836,0.000
1759592706.919,-101.074,-21.973,-9.277,-2.930,0.000
1759592706.923,-121.582,-25.879,-9.766,-7.324,0.000
1759592706.927,45.410,-24.414,-16.602,-3.906,0.000
1759592706.931,119.141,-23.926,-19.531,-2.930,0.000
1759592706.935,-82.520,-27.832,-20.996,-15.625,0.000
1759592706.939,-154.297,-32.227,-19.043,-5.859,0.000
1759592706.943,2.930,-34.668,-25.879,-7.812,0.000
1759592706.946,121.582,-30.273,-28.809,-21.484,0.000
1759592706.950,-13.672,-32.715,-27.344,-8.301,0.000
1759592706.954,-154.785,-37.598,-26.367,-5.859,0.000
1759592706.958,-83.008,-40.039,-26.367,-15.137,0.000
1759592706.962,102.539,-33.691,-26.367,-21.484,0.000
1759592706.966,48.340,-23.926,-22.461,-10.742,0.000
1759592706.970,-141.602,-27.832,-18.555,0.000,0.000
1759592706.974,-131.348,-37.109,-20.020,-17.578,0.000
1759592706.978,72.266,-34.668,-24.414,-21.484,0.000
1759592706.982,104.980,-23.926,-19.043,-12.695,0.000
1759592706.986,-97.656,-25.879,-16.113,-15.137,0.000
1759592706.989,-151.367,-28.809,-20.508,-15.137,0.000
1759592706.993,30.273,-28.809,-26.367,-10.254,0.000
1759592706.997,135.742,-27.832,-24.414,-0.488,0.000
1759592707.001,-62.500,-24.414,-13.184,-2.930,0.000
1759592707.005,-176.270,-25.391,-15.625,-8.301,0.000
1759592707.009,-23.926,-26.855,-19.531,-8.789,0.000
1759592707.013,127.930,-29.297,-18.555,-7.324,0.000
1759592707.017,-12.207,-28.809,-12.695,-7.812,0.000
1759592707.021,-182.617,-23.438,-11.230,-15.137,0.000
1759592707.025,-103.516,-21.973,-15.625,-16.602,0.000
1759592707.029,99.121,-25.391,-10.742,-9.277,0.000
1759592707.032,48.340,-22.461,-5.859,-6.348,0.000
1759592707.036,-146.484,-24.414,-6.836,-3.418,0.000
1759592707.040,-119.141,-30.762,-10.742,-2.930,0.000
1759592707.044,61.523,-28.320,-11.230,-18.066,0.000
1759592707.048,78.613,-22.461,-6.836,-23.438,0.000
1759592707.052,-117.676,-20.020,-12.207,-6.836,0.000
1759592707.056,-181.152,-20.508,-18.555,-13.672,0.000
1759592707.060,3.906,-21.484,-13.672,-15.625,0.000
1759592707.064,120.605,-21.973,-11.230,-10.742,0.000
1759592707.068,-64.453,-25.879,-18.066,-9.277,0.000
1759592707.071,-160.156,-26.855,-19.531,-6.836,0.000
1759592707.075,-34.668,-26.367,-12.695,-19.043,0.000
1759592707.079,120.605,-31.738,-18.555,-19.531,0.000
1759592707.083,5.859,-40.527,-27.832,-13.184,0.000
1759592707.087,-181.152,-40.527,-24.414,-19.531,0.000
1759592707.091,-128.906,-39.062,-17.578,-44.922,0.000
1759592707.095,83.008,-33.691,-23.926,-34.668,0.000
1759592707.099,59.570,-27.832,-21.973,-13.672,0.000
1759592707.103,-131.836,-25.391,-14.648,-15.625,0.000
1759592707.107,-141.113,-26.855,-20.996,-24.902,0.000
1759592707.111,28.809,-29.785,-18.555,-39.551,0.000
1759592707.114,90.820,-20.020,-8.301,-33.691,0.000
1759592707.118,-99.609,-25.391,-9.277,-31.738,0.000
1759592707.122,-185.547,-14.648,-4.883,-46.387,0.000
1759592707.126,-41.504,-8.301,-4.883,-59.570,0.000
1759592707.130,87.402,-36.621,-12.695,-68.848,0.000
1759592707.134,-87.402,-15.137,-3.418,-94.727,0.000
1759592707.138,-250.488,20.508,28.809,-113.770,0.000
1759592707.142,-167.480,-14.648,36.133,-118.164,0.000
1759592707.146,-7.324,-39.062,4.395,-140.625,0.000
1759592707.150,-124.512,-28.320,16.602,-166.504,0.000
1759592707.154,-348.633,-16.113,31.250,-207.520,0.000
1759592707.157,-325.684,-14.648,38.574,-232.422,0.000
1759592707.161,-137.695,-18.555,49.316,-247.559,0.000
1759592707.165,-171.875,-10.742,51.758,-271.973,0.000
1759592707.169,-394.043,2.441,60.547,-274.902,0.000
1759592707.173,-415.039,4.883,49.805,-271.484,0.000
1759592707.177,-213.867,-2.441,32.227,-272.461,0.000
1759592707.181,-128.418,-0.977,41.504,-272.461,0.000
1759592707.185,-310.059,-0.488,47.363,-256.836,0.000
1759592707.189,-385.254,8.789,34.180,-228.027,0.000
1759592707.193,-243.652,14.160,36.133,-222.656,0.000
1759592707.196,-87.891,9.766,43.945,-230.957,0.000
1759592707.200,-212.402,-2.930,36.133,-215.332,0.000
1759592707.204,-337.402,-10.254,31.738,-187.988,0.000
1759592707.208,-219.727,-7.812,31.738,-168.457,0.000
1759592707.212,-16.113,-11.719,26.855,-154.297,0.000
1759592707.216,-67.383,-14.160,26.855,-116.211,0.000
1759592707.220,-205.566,-15.625,17.090,-92.773,0.000
1759592707.224,-134.277,-21.484,5.859,-83.008,0.000
1759592707.228,32.715,-24.902,9.766,-75.195,0.000
1759592707.232,15.137,-24.414,7.812,-66.895,0.000
1759592707.236,-151.855,-28.809,0.000,-37.109,0.000
1759592707.239,-158.691,-28.809,5.371,-18.066,0.000
1759592707.243,23.438,-25.879,-6.836,-6.836,0.000
1759592707.247,133.301,-35.645,-22.949,1.465,0.000
1759592707.251,-25.391,-37.598,-20.996,10.254,0.000
1759592707.255,-108.398,-39.062,-20.508,16.113,0.000
1759592707.259,17.578,-41.992,-31.738,6.836,0.000
1759592707.263,190.430,-39.062,-42.480,15.625,0.000
1759592707.267,64.941,-40.039,-36.133,45.898,0.000
1759592707.271,-127.441,-40.039,-33.203,52.734,0.000
1759592707.275,-24.414,-40.527,-37.109,55.664,0.000
1759592707.279,192.871,-40.039,-47.363,69.824,0.000
1759592707.282,149.414,-39.062,-47.363,74.219,0.000
1759592707.286,-47.852,-37.598,-30.273,73.730,0.000
1759592707.290,-30.762,-39.062,-39.551,71.289,0.000
1759592707.294,163.086,-35.645,-48.828,70.312,0.000
1759592707.298,188.477,-34.180,-51.758,76.172,0.000
1759592707.302,-8.789,-34.668,-54.688,68.848,0.000
1759592707.306,-56.152,-34.180,-49.805,69.336,0.000
1759592707.310,112.793,-37.109,-48.828,74.219,0.000
1759592707.314,192.383,-36.621,-52.246,74.219,0.000
1759592707.318,15.625,-36.133,-51.758,84.473,0.000
1759592707.321,-66.895,-39.551,-48.340,89.355,0.000
1759592707.325,46.875,-40.039,-47.363,86.426,0.000
1759592707.329,214.844,-38.086,-39.551,77.637,0.000
1759592707.333,107.422,-37.109,-39.062,70.312,0.000
1759592707.337,-70.801,-33.203,-46.875,63.965,0.000
1759592707.341,-4.395,-27.832,-45.898,73.242,0.000
1759592707.345,187.012,-27.832,-41.504,76.660,0.000
1759592707.349,159.668,-29.785,-42.480,73.242,0.000
1759592707.353,-44.434,-31.250,-41.016,68.848,0.000
1759592707.357,-70.312,-33.203,-38.086,62.500,0.000
1759592707.361,106.445,-30.273,-41.992,55.664,0.000
1759592707.364,168.945,-35.156,-46.387,47.852,0.000
1759592707.368,-31.738,-41.016,-54.199,56.152,0.000
1759592707.372,-106.934,-39.062,-52.734,62.988,0.000
1759592707.376,60.059,-40.039,-43.457,50.781,0.000
1759592707.380,193.848,-36.621,-46.387,44.434,0.000
1759592707.384,34.180,-30.762,-44.434,51.270,0.000
1759592707.388,-102.051,-30.273,-41.016,45.410,0.000
1759592707.392,0.977,-34.180,-43.457,37.598,0.000
1759592707.396,171.875,-36.621,-47.363,42.480,0.000
1759592707.400,75.195,-38.086,-43.457,44.434,0.000
1759592707.404,-87.402,-38.086,-30.273,46.875,0.000
1759592707.407,-46.387,-40.527,-25.391,40.039,0.000
1759592707.411,117.188,-37.109,-33.691,27.344,0.000
1759592707.415,124.512,-36.621,-43.945,33.691,0.000
1759592707.419,-76.660,-43.457,-34.180,37.598,0.000
1759592707.423,-119.141,-38.574,-18.555,35.645,0.000
1759592707.427,61.035,-36.133,-30.273,35.645,0.000
1759592707.431,169.434,-35.645,-36.133,20.508,0.000
1759592707.435,-29.297,-29.785,-30.273,11.719,0.000
1759592707.439,-143.555,-33.691,-30.762,16.602,0.000
1759592707.443,16.113,-41.016,-32.715,17.578,0.000
1759592707.446,164.551,-35.645,-32.227,24.902,0.000
1759592707.450,18.066,-28.320,-26.855,24.414,0.000
1759592707.454,-124.023,-26.855,-22.461,14.160,0.000
1759592707.458,-30.762,-27.344,-33.691,24.414,0.000
1759592707.462,152.344,-27.344,-30.762,31.738,0.000
1759592707.466,85.449,-29.297,-13.184,26.855,0.000
1759592707.470,-99.121,-29.297,-21.973,29.785,0.000
1759592707.474,-62.988,-26.855,-30.762,26.855,0.000
1759592707.478,111.816,-25.879,-29.785,21.973,0.000
1759592707.482,132.812,-25.879,-23.438,26.855,0.000
1759592707.486,-43.457,-23.438,-21.484,24.414,0.000
1759592707.489,-104.980,-16.602,-26.855,20.020,0.000
1759592707.493,45.898,-22.461,-26.855,16.113,0.000
1759592707.497,150.879,-24.414,-26.855,14.648,0.000
1759592707.501,-17.578,-25.879,-30.273,20.996,0.000
1759592707.505,-123.535,-32.715,-34.668,10.254,0.000
1759592707.509,6.348,-33.203,-32.715,-4.883,0.000
1759592707.513,167.480,-31.250,-27.832,0.000,0.000
1759592707.517,43.945,-30.762,-33.203,11.719,0.000
1759592707.521,-111.816,-29.785,-33.203,16.602,0.000
1759592707.525,-43.945,-28.320,-22.461,10.254,0.000
1759592707.529,142.090,-27.832,-28.809,4.395,0.000
1759592707.532,95.703,-33.203,-33.691,12.695,0.000
1759592707.536,-117.676,-30.273,-22.949,-2.930,0.000
1759592707.540,-113.281,-23.438,-21.973,-20.996,0.000
1759592707.544,92.285,-25.391,-29.297,-8.301,0.000
1759592707.548,140.137,-23.438,-30.273,4.395,0.000
1759592707.552,-66.895,-21.484,-25.391,11.719,0.000
1759592707.556,-133.301,-26.367,-22.461,12.207,0.000
1759592707.560,46.387,-26.367,-26.367,-6.836,0.000
1759592707.564,158.203,-23.926,-31.250,-9.277,0.000
1759592707.568,-27.832,-30.273,-23.438,7.812,0.000
1759592707.571,-136.230,-30.273,-12.695,-2.441,0.000
1759592707.575,-13.184,-27.832,-17.578,-4.883,0.000
1759592707.579,148.926,-24.414,-17.578,-4.883,0.000
1759592707.583,45.410,-20.020,-15.137,-6.348,0.000
1759592707.587,-129.395,-25.391,-17.090,1.953,0.000
1759592707.591,-76.172,-27.344,-16.113,2.441,0.000
1759592707.595,110.352,-22.949,-17.578,-1.953,0.000
1759592707.599,88.867,-25.391,-23.926,-2.441,0.000
1759592707.603,-109.375,-33.203,-25.391,-5.371,0.000
1759592707.607,-114.746,-31.738,-26.367,-11.719,0.000
1759592707.611,70.801,-29.297,-28.320,-0.977,0.000
1759592707.614,115.234,-29.785,-18.066,2.930,0.000
1759592707.618,-71.777,-28.320,-16.113,-8.789,0.000
1759592707.622,-149.414,-28.320,-27.344,-9.766,0.000
1759592707.626,-29.297,-26.367,-23.926,3.418,0.000
1759592707.630,113.770,-22.949,-18.066,-2.930,0.000
1759592707.634,-25.391,-24.414,-26.855,-17.090,0.000
1759592707.638,-164.551,-28.320,-35.645,-20.508,0.000
1759592707.642,-60.059,-26.855,-36.133,-19.043,0.000
1759592707.646,122.070,-23.926,-32.715,-11.719,0.000
1759592707.650,44.434,-26.367,-28.320,-8.301,0.000
1759592707.654,-132.812,-26.367,-28.809,0.000,0.000
1759592707.657,-110.352,-23.438,-29.297,5.371,0.000
1759592707.661,77.148,-22.949,-16.602,-3.418,0.000
1759592707.665,88.379,-21.484,-18.066,-1.465,0.000
1759592707.669,-109.375,-23.926,-24.414,0.000,0.000
1759592707.673,-140.625,-21.973,-19.043,-6.348,0.000
1759592707.677,39.062,-18.555,-15.137,-6.836,0.000
1759592707.681,117.676,-23.926,-16.113,-4.883,0.000
1759592707.685,-59.082,-31.250,-22.461,-8.789,0.000
1759592707.689,-148.438,-28.320,-28.320,-7.812,0.000
1759592707.693,-39.062,-25.879,-23.438,-17.578,0.000
1759592707.696,113.281,-32.227,-13.672,-18.555,0.000
1759592707.700,-10.742,-34.668,-17.578,-5.859,0.000
1759592707.704,-164.062,-35.645,-16.602,-5.859,0.000
1759592707.708,-75.684,-32.227,-13.672,-19.043,0.000
1759592707.712,111.816,-25.391,-21.484,-22.949,0.000
1759592707.716,58.594,-27.344,-24.902,-10.254,0.000
1759592707.720,-125.977,-31.250,-18.555,-14.160,0.000
1759592707.724,-107.422,-28.320,-20.508,-19.531,0.000
1759592707.728,80.078,-32.715,-29.785,-8.789,0.000
1759592707.732,84.473,-33.691,-26.367,-20.996,0.000
1759592707.736,-104.492,-26.855,-21.973,-25.879,0.000
1759592707.739,-151.367,-31.250,-22.461,-24.414,0.000
1759592707.743,26.855,-23.438,-28.320,-20.508,0.000
1759592707.747,131.836,-26.367,-26.367,-6.348,0.000
1759592707.751,-66.406,-34.668,-18.066,-20.996,0.000
1759592707.755,-156.738,-28.320,-16.602,-24.902,0.000
1759592707.759,-20.996,-21.973,-11.230,-11.719,0.000
1759592707.763,130.371,-19.043,-15.625,-15.137,0.000
1759592707.767,11.719,-16.602,-19.531,-20.020,0.000
1759592707.771,-140.625,-18.066,-17.578,-11.230,0.000
1759592707.775,-67.871,-23.926,-19.531,-13.184,0.000
1759592707.779,99.609,-26.855,-22.461,-16.113,0.000
1759592707.782,55.176,-28.809,-21.973,-13.184,0.000
1759592707.786,-128.906,-27.832,-25.879,-17.090,0.000
1759592707.790,-121.582,-27.344,-33.691,-20.020,0.000
1759592707.794,75.684,-32.715,-25.391,-23.926,0.000
1759592707.798,102.539,-30.273,-11.230,-29.297,0.000
1759592707.802,-105.469,-32.227,-16.113,-15.137,0.000
1759592707.806,-155.273,-33.691,-19.531,-11.719,0.000
1759592707.810,25.391,-30.762,-16.113,-18.066,0.000
1759592707.814,146.484,-33.203,-20.996,-10.742,0.000
1759592707.818,-49.805,-37.598,-25.879,-13.184,0.000
1759592707.821,-180.176,-36.621,-22.461,-10.254,0.000
1759592707.825,-42.480,-35.645,-17.090,-7.812,0.000
1759592707.829,121.582,-33.203,-18.555,-7.812,0.000
1759592707.833,0.000,-31.250,-26.367,0.977,0.000
1759592707.837,-155.762,-23.438,-16.113,7.324,0.000
1759592707.841,-85.449,-16.602,-1.465,7.324,0.000
1759592707.845,104.980,-20.996,-11.230,-1.465,0.000
1759592707.849,79.102,-19.531,-17.090,-8.301,0.000
1759592707.853,-120.605,-17.090,-15.137,-6.348,0.000
1759592707.857,-140.137,-19.531,-14.160,-12.207,0.000
1759592707.861,69.824,-22.949,-20.508,-16.602,0.000
1759592707.864,134.766,-31.250,-28.320,-18.555,0.000
1759592707.868,-96.680,-38.086,-20.508,-19.531,0.000
1759592707.872,-178.711,-36.133,-16.602,-18.555,0.000
1759592707.876,-9.766,-25.879,-21.484,-20.996,0.000
1759592707.880,133.789,-15.137,-22.461,-12.207,0.000
1759592707.884,-26.367,-11.719,-23.438,-14.648,0.000
1759592707.888,-157.715,-17.578,-25.391,-30.762,0.000
1759592707.892,-69.824,-26.367,-27.344,-29.785,0.000
1759592707.896,112.305,-28.809,-26.367,-18.555,0.000
1759592707.900,44.922,-22.949,-17.090,-19.043,0.000
1759592707.903,-154.297,-22.461,-9.277,-22.461,0.000
1759592707.907,-118.164,-26.855,-9.277,-16.113,0.000
1759592707.911,84.473,-29.297,-9.277,-6.348,0.000
1759592707.915,82.520,-25.879,-11.719,-14.648,0.000
1759592707.919,-117.188,-18.555,-11.230,-15.625,0.000
1759592707.923,-142.578,-13.672,-11.230,0.000,0.000
1759592707.927,36.133,-16.113,-13.672,0.488,0.000
1759592707.931,124.023,-19.531,-9.277,-10.742,0.000
1759592707.935,-64.941,-23.438,-5.859,-18.555,0.000
1759592707.939,-162.598,-26.855,-15.625,-4.395,0.000
1759592707.943,-13.184,-24.902,-20.996,0.977,0.000
1759592707.946,149.414,-21.973,-8.301,-0.977,0.000
1759592707.950,9.277,-24.902,-7.812,7.324,0.000
1759592707.954,-172.363,-28.809,-8.301,-4.883,0.000
1759592707.958,-87.891,-28.809,-16.113,-29.785,0.000
1759592707.962,93.750,-27.832,-20.020,-47.363,0.000
1759592707.966,30.762,-23.438,-17.578,-43.457,0.000
1759592707.970,-150.879,-23.438,-18.555,-48.340,0.000
1759592707.974,-148.926,-32.227,-16.602,-58.594,0.000
1759592707.978,32.715,-35.645,-15.625,-60.059,0.000
1759592707.982,53.223,-25.391,-13.672,-60.059,0.000
1759592707.986,-138.184,-25.879,-20.508,-49.316,0.000
1759592707.989,-189.941,-29.297,-20.508,-48.340,0.000
1759592707.993,-0.488,-21.973,-15.137,-51.270,0.000
1759592707.997,121.582,-15.137,-19.531,-40.527,0.000
1759592708.001,-66.895,-12.695,-18.555,-30.762,0.000
1759592708.005,-163.574,-17.090,-12.207,-36.133,0.000
1759592708.009,-51.270,-20.508,-12.207,-37.598,0.000
1759592708.013,93.750,-23.926,-20.508,-30.273,0.000
1759592708.017,-2.930,-30.762,-27.832,-31.738,0.000
1759592708.021,-173.340,-34.668,-31.738,-30.273,0.000
1759592708.025,-100.098,-33.203,-31.738,-27.832,0.000
1759592708.028,108.887,-24.902,-30.762,-11.230,0.000
1759592708.032,62.012,-23.438,-33.203,1.953,0.000
1759592708.036,-133.789,-31.250,-23.926,7.324,0.000
1759592708.040,-123.535,-28.809,-19.043,-16.602,0.000
1759592708.044,74.707,-25.879,-28.809,-37.598,0.000
1759592708.048,118.164,-28.809,-31.738,-31.250,0.000
1759592708.052,-94.238,-25.879,-24.902,-29.297,0.000
1759592708.056,-169.922,-22.461,-23.438,-27.832,0.000
1759592708.060,-19.531,-30.762,-23.438,-28.320,0.000
1759592708.064,116.699,-29.785,-24.902,-24.414,0.000
1759592708.068,-34.180,-19.043,-25.391,-15.137,0.000
1759592708.071,-159.668,-22.949,-15.137,-14.648,0.000
1759592708.075,-36.621,-27.344,-17.578,-4.395,0.000
1759592708.079,140.137,-24.414,-18.066,-13.184,0.000
1759592708.083,53.223,-20.508,-16.602,-26.855,0.000
1759592708.087,-145.508,-17.578,-22.949,-21.484,0.000
1759592708.091,-117.188,-23.926,-22.949,-12.207,0.000
1759592708.095,93.750,-28.320,-20.508,-10.742,0.000
1759592708.099,65.430,-24.414,-19.043,-26.855,0.000
1759592708.103,-129.883,-19.043,-21.484,-31.738,0.000
1759592708.107,-130.371,-18.555,-17.578,-20.508,0.000
1759592708.111,76.172,-15.137,-12.207,-13.672,0.000
1759592708.114,160.645,-17.090,-18.555,-0.488,0.000
1759592708.118,-51.270,-21.973,-15.625,10.742,0.000
1759592708.122,-155.762,-22.461,-7.812,7.812,0.000
1759592708.126,-2.930,-24.902,-9.277,-1.953,0.000
1759592708.130,151.855,-31.738,-13.184,0.000,0.000
1759592708.134,-2.441,-30.273,-10.254,5.859,0.000
1759592708.138,-158.203,-29.297,-8.789,-1.953,0.000
1759592708.142,-57.129,-31.250,-17.090,-17.578,0.000
1759592708.146,126.465,-29.297,-21.484,-26.367,0.000
1759592708.150,47.363,-30.762,-19.531,-18.555,0.000
1759592708.153,-135.254,-32.227,-21.973,-16.602,0.000
1759592708.157,-106.934,-28.809,-24.902,-24.902,0.000
1759592708.161,89.844,-20.996,-29.785,-24.414,0.000
1759592708.165,95.215,-22.949,-33.691,-20.508,0.000
1759592708.169,-101.074,-32.227,-21.484,-26.855,0.000
1759592708.173,-130.371,-28.320,-10.254,-25.391,0.000
1759592708.177,41.992,-22.949,-15.625,-12.207,0.000
1759592708.181,107.422,-22.949,-18.555,-18.066,0.000
1759592708.185,-65.430,-22.461,-10.742,-13.184,0.000
1759592708.189,-145.020,-25.391,-13.672,-15.137,0.000
1759592708.193,-17.090,-27.832,-24.414,-15.137,0.000
1759592708.196,130.371,-26.855,-19.531,-11.230,0.000
1759592708.200,-11.719,-20.020,-12.207,-12.207,0.000
1759592708.204,-163.574,-23.438,-21.973,-14.648,0.000
1759592708.208,-82.031,-34.180,-33.203,-20.996,0.000
1759592708.212,121.094,-28.320,-28.320,-13.672,0.000
1759592708.216,72.266,-24.414,-16.602,-19.043,0.000
1759592708.220,-147.949,-35.156,-19.531,-14.648,0.000
1759592708.224,-140.137,-31.738,-21.973,-2.441,0.000
1759592708.228,61.523,-29.297,-19.531,-18.555,0.000
1759592708.232,88.867,-29.297,-14.648,-24.414,0.000
1759592708.236,-94.238,-25.391,-20.996,-22.949,0.000
1759592708.239,-134.766,-31.250,-26.855,-32.715,0.000
1759592708.243,16.113,-33.691,-21.973,-31.738,0.000
1759592708.247,119.141,-28.809,-23.926,-22.461,0.000
1759592708.251,-54.199,-24.414,-25.879,-16.113,0.000
1759592708.255,-181.641,-27.344,-28.320,-16.602,0.000
1759592708.259,-53.711,-34.180,-29.785,-23.926,0.000
1759592708.263,120.117,-31.250,-27.344,-20.996,0.000
1759592708.267,2.441,-25.879,-29.785,-18.555,0.000
1759592708.271,-162.109,-30.273,-33.203,-20.020,0.000
1759592708.275,-89.355,-31.738,-23.926,-31.250,0.000
1759592708.278,100.098,-35.156,-20.508,-39.551,0.000
1759592708.282,65.430,-26.367,-26.367,-21.484,0.000
1759592708.286,-125.488,-25.391,-23.926,-17.578,0.000
1759592708.290,-130.371,-30.273,-22.949,-28.320,0.000
1759592708.294,64.453,-24.414,-24.902,-31.250,0.000
1759592708.298,129.883,-25.879,-26.855,-18.066,0.000
1759592708.302,-74.219,-29.297,-34.668,-8.789,0.000
1759592708.306,-171.875,-33.691,-32.227,-12.695,0.000
1759592708.310,-10.254,-35.645,-26.855,-19.531,0.000
1759592708.314,115.723,-39.062,-36.133,-12.695,0.000
1759592708.318,-37.109,-37.598,-34.180,-3.906,0.000
1759592708.321,-154.297,-26.855,-17.090,-16.113,0.000
1759592708.325,-49.316,-17.578,-19.531,-25.879,0.000
1759592708.329,123.047,-20.996,-30.273,-26.367,0.000
1759592708.333,21.973,-24.414,-30.273,-28.320,0.000
1759592708.337,-172.852,-24.902,-25.879,-22.949,0.000
1759592708.341,-114.258,-30.762,-25.879,-22.461,0.000
1759592708.345,72.754,-35.645,-28.320,-25.879,0.000
1759592708.349,40.527,-33.203,-25.391,-12.695,0.000
1759592708.353,-129.395,-22.461,-18.555,-17.090,0.000
1759592708.357,-131.348,-26.855,-21.973,-19.531,0.000
1759592708.361,52.734,-35.156,-23.438,-0.488,0.000
1759592708.364,125.977,-26.855,-12.207,-2.930,0.000
1759592708.368,-82.031,-23.438,-10.742,-17.578,0.000
1759592708.372,-175.293,-27.344,-19.043,-20.508,0.000
1759592708.376,-6.836,-24.414,-17.578,-17.090,0.000
1759592708.380,122.070,-20.020,-17.090,-15.625,0.000
1759592708.384,-32.227,-24.902,-20.020,-22.461,0.000
1759592708.388,-153.809,-32.227,-28.320,-21.973,0.000
1759592708.392,-55.664,-32.227,-28.320,-18.066,0.000
1759592708.396,111.816,-30.762,-26.855,-21.484,0.000
1759592708.400,27.344,-29.785,-23.438,-12.695,0.000
1759592708.403,-142.090,-22.949,-26.855,3.418,0.000
1759592708.407,-110.840,-29.785,-28.809,0.977,0.000
1759592708.411,84.473,-35.156,-15.137,-5.859,0.000
1759592708.415,92.773,-22.949,-19.043,4.883,0.000
1759592708.419,-113.770,-19.043,-27.344,-1.953,0.000
1759592708.423,-149.902,-26.367,-20.508,-17.578,0.000
1759592708.427,39.062,-27.344,-15.625,-11.719,0.000
1759592708.431,115.723,-23.926,-20.020,-11.719,0.000
1759592708.435,-69.336,-23.926,-21.484,-16.113,0.000
1759592708.439,-154.785,-31.738,-15.625,-11.230,0.000
1759592708.443,-20.020,-31.250,-19.531,-15.137,0.000
1759592708.446,131.348,-28.809,-25.879,-21.973,0.000
1759592708.450,3.906,-31.250,-26.367,-14.160,0.000
1759592708.454,-141.602,-30.273,-14.160,-9.277,0.000
1759592708.458,-73.730,-30.273,-15.137,-24.902,0.000
1759592708.462,109.375,-27.344,-24.902,-27.832,0.000
1759592708.466,44.922,-31.738,-22.461,-17.578,0.000
1759592708.470,-124.023,-37.109,-18.066,-7.812,0.000
1759592708.474,-104.980,-29.297,-15.625,-6.836,0.000
1759592708.478,64.941,-27.832,-20.020,-5.859,0.000
1759592708.482,99.609,-27.344,-17.090,0.488,0.000
1759592708.486,-104.492,-25.879,-7.812,-4.883,0.000
1759592708.489,-140.625,-22.949,-12.695,-3.906,0.000
1759592708.493,35.645,-20.508,-21.973,-3.418,0.000
1759592708.497,132.324,-22.461,-20.020,-5.859,0.000
1759592708.501,-52.734,-22.461,-15.137,-19.043,0.000
1759592708.505,-176.270,-27.344,-23.926,-25.391,0.000
1759592708.509,-47.852,-34.180,-26.367,-15.137,0.000
1759592708.513,134.766,-34.668,-23.438,-11.719,0.000
1759592708.517,34.668,-27.344,-22.461,-13.184,0.000
1759592708.521,-143.555,-26.367,-19.531,-5.859,0.000
1759592708.525,-96.680,-32.227,-23.438,-14.160,0.000
1759592708.528,93.262,-32.227,-23.438,-26.367,0.000
1759592708.532,57.617,-29.297,-19.043,-18.066,0.000
1759592708.536,-130.859,-35.156,-21.973,-9.766,0.000
1759592708.540,-131.348,-34.180,-26.855,-7.324,0.000
1759592708.544,70.801,-30.762,-19.531,-12.695,0.000
1759592708.548,118.164,-38.574,-17.090,-21.484,0.000
1759592708.552,-99.609,-40.039,-22.461,-21.484,0.000
1759592708.556,-153.809,-33.691,-27.832,-10.742,0.000
1759592708.560,12.207,-31.250,-28.320,-15.625,0.000
1759592708.564,132.812,-28.320,-20.996,-11.230,0.000
1759592708.568,-31.738,-29.785,-23.926,-5.371,0.000
1759592708.571,-162.109,-32.715,-23.926,-7.324,0.000
1759592708.575,-36.133,-30.762,-14.160,-12.207,0.000
1759592708.579,130.859,-28.320,-15.625,-25.391,0.000
1759592708.583,23.438,-32.715,-28.320,-15.625,0.000
1759592708.587,-141.113,-38.086,-27.344,-11.230,0.000
1759592708.591,-103.027,-32.227,-17.090,-20.020,0.000
1759592708.595,84.961,-33.691,-21.973,-21.973,0.000
1759592708.599,73.730,-39.062,-30.762,-17.578,0.000
1759592708.603,-131.836,-36.133,-28.809,-15.137,0.000
1759592708.607,-144.531,-32.227,-22.461,-21.973,0.000
1759592708.611,47.852,-31.738,-29.297,-21.484,0.000
1759592708.614,130.859,-31.250,-30.762,-12.695,0.000
1759592708.618,-43.457,-22.949,-29.785,-6.348,0.000
1759592708.622,-147.461,-23.926,-23.926,-16.113,0.000
1759592708.626,-12.207,-30.762,-22.461,-20.020,0.000
1759592708.630,132.324,-28.809,-21.484,-7.324,0.000
1759592708.634,-22.461,-27.832,-16.602,-3.418,0.000
1759592708.638,-180.176,-30.273,-16.602,-24.902,0.000
1759592708.642,-74.707,-39.551,-21.973,-36.621,0.000
1759592708.646,113.770,-39.062,-23.926,-27.832,0.000
1759592708.650,18.066,-32.715,-16.602,-27.344,0.000
1759592708.653,-153.320,-28.809,-11.719,-25.391,0.000
1759592708.657,-104.492,-23.926,-11.719,-21.484,0.000
1759592708.661,101.074,-28.320,-13.184,-12.695,0.000
1759592708.665,97.656,-28.809,-12.207,-8.789,0.000
1759592708.669,-99.609,-27.832,-16.602,-19.043,0.000
1759592708.673,-124.023,-34.180,-26.367,-22.461,0.000
1759592708.677,26.855,-28.320,-24.902,-13.672,0.000
1759592708.681,103.516,-31.250,-16.113,-24.414,0.000
1759592708.685,-77.637,-27.832,-5.859,-34.180,0.000
1759592708.689,-170.898,-18.555,-8.789,-10.254,0.000
1759592708.693,-35.645,-24.414,-18.555,-12.695,0.000
1759592708.696,111.816,-21.973,-4.395,-41.504,0.000
1759592708.700,-29.785,-20.508,1.465,-47.363,0.000
1759592708.704,-203.125,-22.461,5.371,-47.363,0.000
1759592708.708,-133.301,-29.297,12.695,-65.430,0.000
1759592708.712,41.016,-24.902,13.184,-77.637,0.000
1759592708.716,-21.973,-12.695,16.113,-86.914,0.000
1759592708.720,-224.121,-10.742,17.090,-102.051,0.000
1759592708.724,-229.980,-7.324,15.137,-120.605,0.000
1759592708.728,-65.918,-6.348,20.996,-145.996,0.000
1759592708.732,-67.383,-13.672,31.250,-156.250,0.000
1759592708.736,-270.996,-20.996,27.832,-154.297,0.000
1759592708.739,-307.617,-15.137,30.273,-163.574,0.000
1759592708.743,-134.277,-16.113,39.062,-181.641,0.000
1759592708.747,-48.828,-20.996,37.598,-187.988,0.000
1759592708.751,-230.469,-16.602,43.457,-194.824,0.000
1759592708.755,-353.516,-17.578,49.316,-204.590,0.000
1759592708.759,-230.957,-20.020,47.852,-197.754,0.000
1759592708.763,-45.898,-18.555,51.270,-183.594,0.000
1759592708.767,-145.020,-19.531,51.270,-175.781,0.000
1759592708.771,-296.875,-21.973,45.410,-164.062,0.000
1759592708.775,-221.680,-23.926,35.156,-166.016,0.000
1759592708.778,-27.344,-22.949,28.809,-153.809,0.000
1759592708.782,-67.871,-18.066,28.809,-135.254,0.000
1759592708.786,-243.652,-18.066,32.227,-131.348,0.000
1759592708.790,-222.656,-21.973,24.414,-111.816,0.000
1759592708.794,-36.621,-21.973,21.973,-102.539,0.000
1759592708.798,16.113,-23.438,17.578,-94.727,0.000
1759592708.802,-175.293,-25.879,10.254,-87.891,0.000
1759592708.806,-231.934,-26.855,1.953,-80.566,0.000
1759592708.810,-51.758,-24.414,-7.324,-62.012,0.000
1759592708.814,88.379,-22.949,-10.254,-50.293,0.000
1759592708.818,-72.266,-24.902,-15.137,-44.434,0.000
1759592708.821,-200.195,-31.738,-18.555,-36.621,0.000
1759592708.825,-73.242,-34.668,-29.785,-32.715,0.000
1759592708.829,111.816,-28.809,-31.250,-23.926,0.000
1759592708.833,27.832,-31.250,-24.414,-20.020,0.000
1759592708.837,-127.930,-36.621,-38.574,-14.648,0.000
1759592708.841,-80.078,-33.203,-43.457,-9.277,0.000
1759592708.845,121.094,-33.203,-40.039,0.488,0.000
1759592708.849,114.258,-37.598,-41.504,20.508,0.000
1759592708.853,-72.266,-35.645,-40.527,39.551,0.000
1759592708.857,-66.895,-30.762,-39.551,42.969,0.000
1759592708.861,90.332,-31.250,-41.504,47.852,0.000
1759592708.864,143.555,-32.227,-41.504,57.617,0.000
1759592708.868,-17.090,-35.645,-47.852,59.570,0.000
1759592708.872,-88.867,-36.133,-48.340,63.477,0.000
1759592708.876,50.781,-32.227,-40.039,54.199,0.000
1759592708.880,189.941,-28.809,-43.945,49.805,0.000
1759592708.884,51.270,-29.785,-44.922,61.035,0.000
1759592708.888,-90.332,-31.250,-47.363,57.129,0.000
1759592708.892,16.113,-26.855,-50.781,50.781,0.000
1759592708.896,196.289,-29.297,-53.223,52.246,0.000
1759592708.900,113.281,-32.227,-55.176,52.246,0.000
1759592708.903,-80.078,-30.762,-61.035,53.223,0.000
1759592708.907,-55.664,-35.645,-59.082,51.270,0.000
1759592708.911,136.719,-40.039,-55.664,34.668,0.000
1759592708.915,149.902,-39.062,-61.523,39.551,0.000
1759592708.919,-46.387,-37.109,-51.758,53.223,0.000
1759592708.923,-97.656,-33.691,-40.039,48.340,0.000
1759592708.927,88.379,-30.762,-46.387,52.246,0.000
1759592708.931,184.570,-33.691,-45.898,59.082,0.000
1759592708.935,4.883,-31.250,-41.992,43.457,0.000
1759592708.939,-82.031,-27.832,-42.480,24.902,0.000
1759592708.943,41.992,-29.785,-42.480,31.250,0.000
1759592708.946,185.059,-29.785,-39.062,40.039,0.000
1759592708.950,61.035,-30.273,-31.738,39.551,0.000
1759592708.954,-105.469,-26.855,-39.551,37.598,0.000
1759592708.958,-24.902,-27.344,-51.758,36.621,0.000
1759592708.962,175.293,-30.762,-51.758,33.203,0.000
1759592708.966,108.398,-27.832,-40.039,30.273,0.000
1759592708.970,-86.426,-20.508,-35.645,40.039,0.000
1759592708.974,-48.340,-21.973,-34.668,39.062,0.000
1759592708.978,130.859,-25.391,-28.809,33.691,0.000
1759592708.982,137.695,-26.855,-23.438,30.762,0.000
1759592708.986,-42.969,-29.785,-28.320,30.273,0.000
1759592708.989,-103.027,-27.344,-30.273,32.227,0.000
1759592708.993,51.758,-27.832,-32.715,28.320,0.000
1759592708.997,163.086,-34.668,-34.180,30.762,0.000
1759592709.001,-11.230,-35.156,-25.879,30.273,0.000
1759592709.005,-118.652,-32.227,-26.367,25.391,0.000
1759592709.009,14.648,-31.250,-31.250,20.508,0.000
1759592709.013,188.477,-27.344,-30.762,12.695,0.000
1759592709.017,53.711,-28.320,-29.297,12.695,0.000
1759592709.021,-146.973,-31.250,-32.227,28.809,0.000
1759592709.025,-58.594,-25.391,-27.832,24.902,0.000
1759592709.028,135.742,-28.809,-29.785,4.883,0.000
1759592709.032,80.566,-35.645,-29.297,17.090,0.000
1759592709.036,-93.262,-29.785,-26.855,25.879,0.000
1759592709.040,-97.656,-31.250,-25.879,7.324,0.000
1759592709.044,82.520,-34.180,-27.832,0.977,0.000
1759592709.048,134.277,-28.320,-27.344,0.488,0.000
1759592709.052,-66.895,-30.762,-28.809,2.441,0.000
1759592709.056,-130.859,-34.180,-29.785,0.000,0.000
1759592709.060,20.508,-36.621,-31.250,-13.184,0.000
1759592709.064,140.137,-40.039,-39.551,-5.859,0.000
1759592709.068,-17.578,-41.016,-37.598,-1.953,0.000
1759592709.071,-134.277,-35.156,-30.762,-20.508,0.000
1759592709.075,-13.184,-32.715,-36.133,-21.484,0.000
1759592709.079,144.043,-32.715,-31.250,-10.742,0.000
1759592709.083,36.133,-24.902,-26.367,-12.207,0.000
1759592709.087,-150.391,-25.879,-28.809,-8.301,0.000
1759592709.091,-106.934,-27.344,-30.762,-4.395,0.000
1759592709.095,99.121,-27.344,-30.762,-11.719,0.000
1759592709.099,73.242,-40.527,-24.902,-11.230,0.000
1759592709.103,-125.977,-42.969,-18.066,-12.695,0.000
1759592709.107,-135.254,-26.855,-18.555,-13.672,0.000
1759592709.110,48.828,-21.484,-26.367,-7.812,0.000
1759592709.114,118.164,-24.414,-16.113,1.465,0.000
1759592709.118,-75.195,-29.297,-7.812,2.441,0.000
1759592709.122,-152.344,-30.762,-13.184,0.488,0.000
1759592709.126,1.953,-29.785,-16.602,0.000,0.000
1759592709.130,147.949,-31.250,-17.578,-6.348,0.000
1759592709.134,26.855,-35.645,-17.090,-12.695,0.000
1759592709.138,-145.020,-35.156,-21.973,-13.672,0.000
1759592709.142,-76.660,-38.086,-24.414,-13.184,0.000
1759592709.146,120.117,-46.875,-22.949,-16.113,0.000
1759592709.150,29.785,-43.945,-23.438,-13.184,0.000
1759592709.153,-155.273,-36.621,-29.297,-0.977,0.000
1759592709.157,-113.770,-34.180,-34.668,-8.301,0.000
1759592709.161,75.684,-31.738,-25.879,-17.578,0.000
1759592709.165,95.215,-26.855,-20.508,-3.906,0.000
1759592709.169,-93.262,-26.367,-20.996,1.465,0.000
1759592709.173,-130.859,-31.250,-19.531,-6.348,0.000
1759592709.177,32.227,-33.203,-18.066,-15.137,0.000
1759592709.181,113.770,-38.574,-21.484,-14.160,0.000
1759592709.185,-72.266,-39.062,-19.043,-11.719,0.000
1759592709.189,-170.898,-31.250,-22.461,-21.484,0.000
1759592709.193,-26.367,-29.785,-27.344,-23.438,0.000
1759592709.196,132.812,-28.320,-24.414,-19.531,0.000
1759592709.200,2.930,-27.832,-28.809,-4.395,0.000
1759592709.204,-151.367,-29.297,-21.484,2.441,0.000
1759592709.208,-74.219,-26.855,-15.625,-5.859,0.000
1759592709.212,117.676,-23.438,-20.508,-8.789,0.000
1759592709.216,71.777,-27.344,-17.578,-9.766,0.000
1759592709.220,-126.953,-29.785,-13.184,-9.277,0.000
1759592709.224,-99.609,-30.273,-18.555,-7.324,0.000
1759592709.228,95.215,-36.621,-24.902,-10.742,0.000
1759592709.232,97.168,-38.574,-24.414,-21.973,0.000
1759592709.235,-104.004,-30.762,-17.578,-12.695,0.000
1759592709.239,-150.391,-25.391,-15.625,-5.859,0.000
1759592709.243,17.578,-31.250,-26.367,-7.812,0.000
1759592709.247,134.277,-31.250,-25.879,-3.418,0.000
1759592709.251,-19.043,-30.762,-12.207,-3.906,0.000
1759592709.255,-126.465,-29.297,-15.137,-16.113,0.000
1759592709.259,-33.691,-25.391,-20.020,-28.320,0.000
1759592709.263,106.445,-26.855,-23.926,-29.297,0.000
1759592709.267,-1.465,-27.344,-20.996,-20.508,0.000
1759592709.271,-152.832,-26.367,-19.531,-17.090,0.000
1759592709.275,-84.473,-24.902,-22.949,-20.508,0.000
1759592709.278,95.703,-23.926,-20.996,-25.879,0.000
1759592709.282,55.664,-26.855,-22.949,-23.438,0.000
1759592709.286,-133.789,-29.785,-21.973,-20.020,0.000
1759592709.290,-138.672,-30.762,-24.902,-12.695,0.000
1759592709.294,62.012,-33.203,-22.461,-16.113,0.000
1759592709.298,130.371,-30.762,-15.625,-30.762,0.000
1759592709.302,-94.727,-29.297,-23.926,-32.227,0.000
1759592709.306,-191.406,-29.785,-22.949,-27.344,0.000
1759592709.310,-17.578,-29.297,-17.090,-29.785,0.000
1759592709.314,137.695,-24.414,-14.160,-29.785,0.000
1759592709.318,-29.785,-25.879,-14.160,-12.207,0.000
1759592709.321,-180.176,-39.062,-20.508,-15.625,0.000
1759592709.325,-70.312,-41.504,-18.555,-27.344,0.000
1759592709.329,101.562,-38.086,-16.113,-21.973,0.000
1759592709.333,8.789,-39.062,-20.508,-9.277,0.000
1759592709.337,-153.320,-30.762,-18.555,-1.465,0.000
1759592709.341,-88.867,-24.902,-8.789,-8.789,0.000
1759592709.345,116.211,-25.391,-15.625,-12.695,0.000
1759592709.349,77.637,-16.602,-17.578,-2.441,0.000
1759592709.353,-131.348,-15.625,-9.277,-7.324,0.000
1759592709.357,-158.691,-22.461,-7.324,-24.414,0.000
1759592709.360,20.508,-26.855,-11.230,-25.391,0.000
1759592709.364,95.215,-35.645,-17.578,-29.785,0.000
1759592709.368,-85.449,-36.621,-16.602,-26.367,0.000
1759592709.372,-156.250,-30.762,-17.090,-10.742,0.000
1759592709.376,-10.254,-31.738,-23.926,-14.160,0.000
1759592709.380,115.234,-28.320,-26.855,-21.973,0.000
1759592709.384,-29.297,-27.344,-21.484,-16.602,0.000
1759592709.388,-154.785,-24.414,-14.160,-17.578,0.000
1759592709.392,-57.129,-25.391,-13.184,-19.531,0.000
1759592709.396,136.719,-28.320,-20.020,-3.418,0.000
1759592709.400,49.316,-25.391,-11.230,-8.301,0.000
1759592709.403,-151.367,-28.320,-10.742,-20.508,0.000
1759592709.407,-117.188,-27.344,-27.832,-17.578,0.000
1759592709.411,78.125,-25.391,-22.461,-13.184,0.000
1759592709.415,91.309,-25.391,-15.625,-10.254,0.000
1759592709.419,-112.305,-20.020,-21.973,-14.648,0.000
1759592709.423,-149.414,-19.043,-21.484,-8.301,0.000
1759592709.427,36.133,-24.902,-20.020,-3.418,0.000
1759592709.431,138.184,-27.344,-15.625,-7.812,0.000
1759592709.435,-55.664,-33.203,-11.719,-7.324,0.000
1759592709.439,-167.480,-41.992,-23.438,-9.277,0.000
1759592709.443,-45.898,-34.668,-25.879,-4.395,0.000
1759592709.446,107.910,-31.250,-14.160,-9.766,0.000
1759592709.450,-4.883,-33.691,-13.672,-7.324,0.000
1759592709.454,-135.254,-31.250,-14.160,14.160,0.000
1759592709.458,-54.199,-22.461,-12.695,10.254,0.000
1759592709.462,111.328,-14.648,-13.184,-4.395,0.000
1759592709.466,69.336,-20.508,-21.484,0.000,0.000
1759592709.470,-117.676,-30.762,-25.879,-3.906,0.000
1759592709.474,-126.465,-32.227,-26.367,-16.602,0.000
1759592709.478,73.242,-27.344,-22.949,-8.301,0.000
1759592709.482,109.375,-27.344,-20.508,1.465,0.000
1759592709.485,-96.680,-30.273,-28.320,6.836,0.000
1759592709.489,-149.902,-30.762,-20.020,4.883,0.000
1759592709.493,33.691,-28.320,-13.672,0.488,0.000
1759592709.497,138.672,-28.809,-18.066,12.695,0.000
1759592709.501,-35.645,-32.227,-13.184,7.812,0.000
1759592709.505,-127.441,-35.156,-10.254,0.000,0.000
1759592709.509,0.488,-31.250,-17.090,2.930,0.000
1759592709.513,153.320,-33.203,-20.996,0.488,0.000
1759592709.517,36.133,-34.180,-22.461,-0.977,0.000
1759592709.521,-131.836,-21.973,-19.043,6.348,0.000
1759592709.525,-82.031,-19.043,-8.789,7.324,0.000
1759592709.528,100.586,-22.949,-16.602,3.418,0.000
1759592709.532,62.988,-27.344,-26.855,8.789,0.000
1759592709.536,-122.070,-28.809,-10.742,3.418,0.000
1759592709.540,-110.840,-26.367,-6.348,2.930,0.000
1759592709.544,76.660,-25.391,-6.836,8.789,0.000
1759592709.548,115.234,-33.203,-5.859,1.465,0.000
1759592709.552,-77.148,-40.039,-10.254,-1.465,0.000
1759592709.556,-129.395,-27.832,-12.695,0.488,0.000
1759592709.560,20.996,-25.391,-12.695,-1.465,0.000
1759592709.564,131.836,-36.133,-11.719,0.488,0.000
1759592709.568,-16.602,-26.855,-8.301,5.859,0.000
1759592709.571,-131.836,-20.508,-15.137,5.371,0.000
1759592709.575,-27.832,-25.879,-24.414,3.906,0.000
1759592709.579,151.855,-22.949,-7.812,12.695,0.000
1759592709.583,51.758,-17.578,0.488,16.602,0.000
1759592709.587,-137.207,-21.484,-12.207,5.371,0.000
1759592709.591,-91.797,-22.949,-10.742,-10.254,0.000
1759592709.595,101.074,-20.996,-6.348,-7.324,0.000
1759592709.599,85.938,-20.996,-8.301,0.488,0.000
1759592709.603,-110.840,-32.227,-14.648,-3.418,0.000
1759592709.607,-137.207,-36.133,-16.602,-2.441,0.000
1759592709.610,47.852,-25.391,-11.230,-4.883,0.000
1759592709.614,123.535,-23.926,-14.648,-0.488,0.000
1759592709.618,-51.758,-30.762,-22.461,6.348,0.000
1759592709.622,-134.766,-39.551,-20.508,5.859,0.000
1759592709.626,-14.648,-41.016,-15.137,-16.602,0.000
1759592709.630,131.348,-34.668,-11.719,-23.926,0.000
1759592709.634,-18.555,-30.273,-9.766,-7.812,0.000
1759592709.638,-173.828,-28.320,-13.184,-6.348,0.000
1759592709.642,-60.059,-28.320,-10.254,-13.184,0.000
1759592709.646,132.812,-29.785,-15.625,-13.672,0.000
1759592709.650,47.852,-29.297,-18.555,-4.883,0.000
1759592709.653,-137.695,-23.438,-13.672,-22.461,0.000
1759592709.657,-103.516,-18.066,-12.695,-39.551,0.000
1759592709.661,99.121,-19.531,-19.531,-25.391,0.000
1759592709.665,101.562,-23.438,-25.391,-16.113,0.000
1759592709.669,-107.422,-23.926,-18.066,-17.090,0.000
1759592709.673,-138.672,-22.461,-17.090,-23.438,0.000
1759592709.677,35.156,-19.043,-15.625,-18.066,0.000
1759592709.681,113.770,-16.113,-7.812,-5.859,0.000
1759592709.685,-57.617,-25.879,-10.742,-5.859,0.000
1759592709.689,-138.672,-39.062,-13.184,-13.184,0.000
1759592709.693,-5.371,-34.180,-13.184,-11.230,0.000
1759592709.696,139.160,-21.484,-8.789,-5.859,0.000
1759592709.700,10.254,-22.461,-2.930,-2.441,0.000
1759592709.704,-144.043,-22.949,-9.277,-5.859,0.000
1759592709.708,-69.336,-16.602,-19.043,-7.812,0.000
1759592709.712,128.906,-11.230,-14.160,-8.789,0.000
1759592709.716,69.824,-15.137,-8.301,-14.160,0.000
1759592709.720,-130.859,-21.973,-12.207,-8.789,0.000
1759592709.724,-112.793,-20.020,-17.090,-17.578,0.000
1759592709.728,74.219,-21.484,-15.625,-24.414,0.000
1759592709.732,101.562,-30.273,-12.207,-10.742,0.000
1759592709.735,-69.824,-34.180,-13.672,-8.301,0.000
1759592709.739,-142.090,-32.715,-10.254,-15.625,0.000
1759592709.743,-0.977,-29.785,-7.324,-11.719,0.000
1759592709.747,123.535,-26.367,-10.742,-8.789,0.000
1759592709.751,-33.203,-25.391,-9.766,0.488,0.000
1759592709.755,-148.438,-26.855,-14.648,-3.418,0.000
1759592709.759,-47.852,-30.273,-20.996,-15.625,0.000
1759592709.763,127.930,-27.344,-13.672,-15.137,0.000
1759592709.767,11.230,-24.902,-12.695,-15.625,0.000
1759592709.771,-154.785,-27.344,-12.695,-4.883,0.000
1759592709.775,-85.938,-34.180,-4.883,-5.371,0.000
1759592709.778,87.402,-32.715,-13.184,-23.926,0.000
1759592709.782,55.664,-24.414,-19.043,-27.832,0.000
1759592709.786,-128.418,-28.320,-14.648,-17.578,0.000
1759592709.790,-121.582,-30.273,-10.742,-17.578,0.000
1759592709.794,84.473,-27.832,-14.160,-28.809,0.000
1759592709.798,125.488,-29.297,-24.902,-14.648,0.000
1759592709.802,-84.961,-34.180,-24.414,-11.719,0.000
1759592709.806,-145.508,-30.273,-15.137,-28.809,0.000
1759592709.810,17.578,-24.414,-14.648,-27.344,0.000
1759592709.814,124.512,-27.344,-24.902,-18.555,0.000
1759592709.818,-42.480,-27.344,-28.809,-15.137,0.000
1759592709.821,-166.504,-24.414,-20.508,-24.902,0.000
1759592709.825,-69.824,-25.391,-22.461,-30.762,0.000
1759592709.829,124.023,-29.297,-28.320,-32.715,0.000
1759592709.833,22.949,-30.762,-22.461,-25.391,0.000
1759592709.837,-170.410,-29.297,-13.672,-20.996,0.000
1759592709.841,-110.352,-22.949,-14.648,-27.344,0.000
1759592709.845,74.707,-19.531,-20.020,-30.762,0.000
1759592709.849,56.641,-23.926,-16.602,-26.367,0.000
1759592709.853,-122.559,-26.855,-12.207,-23.926,0.000
1759592709.857,-137.695,-35.645,-20.508,-39.062,0.000
1759592709.860,33.691,-34.668,-26.855,-18.066,0.000
1759592709.864,89.844,-25.391,-17.090,-9.277,0.000
1759592709.868,-97.168,-27.832,-15.625,-42.480,0.000
1759592709.872,-162.598,-26.367,-24.902,-36.621,0.000
1759592709.876,-1.465,-26.367,-26.367,-30.273,0.000
1759592709.880,130.371,-28.809,-18.555,-31.250,0.000
1759592709.884,-16.602,-28.320,-16.113,-23.926,0.000
1759592709.888,-153.320,-34.180,-20.996,-20.508,0.000
1759592709.892,-59.570,-33.691,-23.926,-16.113,0.000
1759592709.896,125.000,-26.367,-21.973,-8.789,0.000
1759592709.900,29.785,-21.973,-10.742,-7.812,0.000
1759592709.903,-134.766,-20.996,-14.648,-10.742,0.000
1759592709.907,-108.887,-20.996,-21.484,-14.160,0.000
1759592709.911,65.918,-25.391,-7.812,-26.367,0.000
1759592709.915,84.473,-23.926,-12.207,-20.020,0.000
1759592709.919,-112.793,-23.926,-16.113,-6.836,0.000
1759592709.923,-147.949,-25.391,-11.230,-12.695,0.000
1759592709.927,32.715,-26.367,-12.695,-16.113,0.000
1759592709.931,132.812,-25.879,-16.113,-13.672,0.000
1759592709.935,-50.781,-25.391,-16.113,-9.277,0.000
1759592709.939,-157.227,-28.320,-16.113,-19.531,0.000
1759592709.943,-3.906,-27.344,-18.555,-9.277,0.000
1759592709.946,158.691,-30.762,-23.438,-2.930,0.000
1759592709.950,-13.184,-32.715,-24.902,-13.672,0.000
1759592709.954,-170.898,-30.273,-16.113,3.906,0.000
1759592709.958,-73.730,-28.809,-11.230,-5.371,0.000
1759592709.962,111.328,-30.273,-14.160,-28.809,0.000
1759592709.966,47.363,-27.344,-16.113,-22.461,0.000
1759592709.970,-148.926,-25.879,-12.695,-14.648,0.000
1759592709.974,-126.953,-30.762,-9.766,-13.672,0.000
1759592709.978,81.055,-32.227,-13.184,-11.719,0.000
1759592709.982,113.770,-29.297,-8.301,-12.695,0.000
1759592709.985,-97.168,-32.227,-10.742,-12.207,0.000
1759592709.989,-141.602,-30.762,-13.672,-10.742,0.000
1759592709.993,22.949,-33.203,-18.066,-15.625,0.000
1759592709.997,118.652,-31.738,-19.043,-3.906,0.000
1759592710.001,-30.273,-29.297,-10.742,-4.395,0.000
1759592710.005,-145.508,-31.738,-10.254,-14.648,0.000
1759592710.009,-52.246,-27.344,-13.184,-18.555,0.000
1759592710.013,120.117,-26.367,-9.766,-17.578,0.000
1759592710.017,12.695,-32.227,-5.859,-9.766,0.000
1759592710.021,-151.855,-30.273,-10.254,-8.301,0.000
1759592710.025,-80.078,-30.762,-13.672,-7.324,0.000
1759592710.028,120.605,-28.809,-13.184,-6.836,0.000
1759592710.032,84.961,-19.043,-5.371,-2.441,0.000
1759592710.036,-104.004,-20.020,-5.859,-4.883,0.000
1759592710.040,-127.930,-28.809,-12.207,-15.625,0.000
1759592710.044,35.645,-31.738,-7.812,-23.438,0.000
1759592710.048,78.613,-32.227,-10.254,-33.203,0.000
1759592710.052,-108.887,-35.645,-18.066,-31.250,0.000
1759592710.056,-160.645,-35.156,-19.531,-27.344,0.000
1759592710.060,-2.930,-26.855,-13.184,-24.414,0.000
1759592710.064,130.859,-22.461,-5.859,-16.602,0.000
1759592710.068,-30.762,-26.855,-13.672,-17.090,0.000
1759592710.071,-159.668,-20.508,-20.020,-25.391,0.000
1759592710.075,-42.480,-16.602,-11.719,-20.508,0.000
1759592710.079,130.371,-21.973,-10.254,-21.484,0.000
1759592710.083,40.527,-23.438,-19.043,-10.742,0.000
1759592710.087,-135.742,-22.949,-18.066,-9.766,0.000
1759592710.091,-99.609,-24.902,-8.301,-22.949,0.000
1759592710.095,88.867,-26.855,-12.695,-22.461,0.000
1759592710.099,79.590,-28.809,-17.578,-18.066,0.000
1759592710.103,-116.699,-33.203,-19.531,-13.672,0.000
1759592710.107,-121.094,-41.504,-20.508,-17.578,0.000
1759592710.110,64.941,-42.969,-19.043,-17.578,0.000
1759592710.114,120.605,-26.855,-12.695,-11.230,0.000
1759592710.118,-72.754,-23.438,-9.766,-4.395,0.000
1759592710.122,-145.508,-28.809,-11.230,-4.395,0.000
1759592710.126,20.020,-23.438,-17.578,-11.230,0.000
1759592710.130,158.203,-20.508,-24.902,-8.789,0.000
1759592710.134,-27.832,-23.926,-24.414,-4.883,0.000
1759592710.138,-185.547,-26.855,-15.137,-9.766,0.000
1759592710.142,-70.801,-28.809,-15.625,-15.625,0.000
1759592710.146,115.234,-26.855,-21.973,-9.766,0.000
1759592710.150,41.992,-34.668,-17.090,-9.766,0.000
1759592710.153,-143.555,-44.922,-18.066,-19.531,0.000
1759592710.157,-106.445,-38.086,-20.020,-15.137,0.000
1759592710.161,97.168,-27.832,-18.066,-7.324,0.000
1759592710.165,93.262,-27.344,-12.695,-14.648,0.000
1759592710.169,-117.676,-30.762,-16.113,0.977,0.000
1759592710.173,-131.836,-27.344,-21.973,-4.883,0.000
1759592710.177,43.945,-24.902,-20.020,-18.066,0.000
1759592710.181,114.258,-31.738,-14.648,-9.766,0.000
1759592710.185,-57.617,-35.156,-13.184,-11.719,0.000
1759592710.189,-143.066,-33.203,-19.531,-1.953,0.000
1759592710.192,-14.160,-30.273,-16.602,-1.953,0.000
1759592710.196,125.000,-25.879,-8.789,-10.254,0.000
1759592710.200,-0.977,-29.297,-11.230,4.395,0.000
1759592710.204,-138.184,-31.738,-17.090,5.859,0.000
1759592710.208,-50.293,-33.203,-19.043,-4.883,0.000
1759592710.212,135.742,-36.621,-13.672,-5.859,0.000
1759592710.216,55.176,-35.645,-13.672,-10.254,0.000
1759592710.220,-148.926,-35.156,-22.461,-12.207,0.000
1759592710.224,-116.211,-35.645,-21.973,-11.230,0.000
1759592710.228,84.473,-29.297,-6.348,-4.395,0.000
1759592710.232,95.215,-23.926,-10.742,-9.766,0.000
1759592710.235,-88.379,-28.320,-22.461,0.488,0.000
1759592710.239,-121.094,-31.250,-8.301,2.441,0.000
1759592710.243,40.527,-26.855,-0.488,-2.930,0.000
1759592710.247,145.020,-25.391,-8.301,-1.465,0.000
1759592710.251,-28.320,-26.855,-15.625,-13.672,0.000
1759592710.255,-146.973,-30.273,-17.578,-14.648,0.000
1759592710.259,-28.320,-27.832,-15.625,-11.719,0.000
1759592710.263,131.348,-25.879,-16.602,15.625,0.000
1759592710.267,3.418,-30.762,-18.066,9.277,0.000
1759592710.271,-153.809,-27.832,-18.066,-20.996,0.000
1759592710.275,-74.219,-29.297,-13.672,-11.230,0.000
1759592710.278,116.211,-26.367,-16.113,4.883,0.000
1759592710.282,83.496,-24.902,-12.207,15.625,0.000
1759592710.286,-108.398,-27.344,3.906,9.277,0.000
1759592710.290,-118.164,-30.762,-0.977,-11.719,0.000
1759592710.294,67.871,-35.156,-14.160,-20.996,0.000
1759592710.298,111.816,-34.180,-17.090,-18.066,0.000
1759592710.302,-90.820,-37.598,-13.672,-20.508,0.000
1759592710.306,-152.832,-40.527,-12.695,-18.066,0.000
1759592710.310,10.254,-34.668,-15.137,-17.578,0.000
1759592710.314,129.395,-31.738,-12.695,-24.902,0.000
1759592710.317,-25.879,-33.691,-10.742,-20.508,0.000
1759592710.321,-146.484,-30.273,-10.254,-14.648,0.000
1759592710.325,-48.340,-26.367,-14.648,-13.672,0.000
1759592710.329,146.973,-22.461,-7.324,-20.996,0.000
1759592710.333,59.570,-25.391,-3.906,-19.043,0.000
1759592710.337,-156.250,-31.250,-16.602,-17.578,0.000
1759592710.341,-119.141,-23.926,-13.184,-23.926,0.000
1759592710.345,95.703,-15.625,-9.766,-24.902,0.000
1759592710.349,76.172,-17.578,-5.859,-27.344,0.000
1759592710.353,-117.188,-21.484,-5.371,-24.414,0.000
1759592710.357,-132.812,-23.926,-12.695,-28.320,0.000
1759592710.360,43.945,-26.855,-7.324,-37.109,0.000
1759592710.364,111.328,-21.973,-1.953,-40.039,0.000
1759592710.368,-84.961,-13.672,9.766,-43.457,0.000
1759592710.372,-158.203,-5.371,12.207,-40.039,0.000
1759592710.376,2.930,-10.254,-1.465,-51.270,0.000
1759592710.380,104.492,-14.160,0.000,-66.406,0.000
1759592710.384,-83.984,-15.137,9.766,-80.566,0.000
1759592710.388,-257.324,-4.883,24.414,-107.910,0.000
1759592710.392,-186.035,1.953,26.855,-126.465,0.000
1759592710.396,-12.207,-14.160,16.602,-137.695,0.000
1759592710.400,-107.910,-14.648,15.137,-149.414,0.000
1759592710.403,-317.383,-8.789,18.555,-182.617,0.000
1759592710.407,-299.805,0.977,27.832,-209.961,0.000
1759592710.411,-114.258,9.277,31.250,-214.844,0.000
1759592710.415,-101.562,8.789,24.414,-206.055,0.000
1759592710.419,-316.406,3.418,31.738,-212.402,0.000
1759592710.423,-382.812,-1.465,35.156,-231.445,0.000
1759592710.427,-197.754,-1.465,24.414,-227.539,0.000
1759592710.431,-96.680,1.465,27.344,-223.145,0.000
1759592710.435,-270.020,4.883,38.086,-229.492,0.000
1759592710.439,-370.605,5.371,44.434,-227.051,0.000
1759592710.442,-258.789,5.371,41.992,-228.516,0.000
1759592710.446,-102.051,7.812,35.645,-218.262,0.000
1759592710.450,-208.008,7.812,40.527,-193.848,0.000
1759592710.454,-330.566,-1.953,48.340,-172.852,0.000
1759592710.458,-229.004,-9.277,35.645,-155.273,0.000
1759592710.462,-28.809,-12.695,24.414,-135.742,0.000
1759592710.466,-68.848,-19.043,32.715,-126.953,0.000
1759592710.470,-240.234,-18.066,31.738,-117.676,0.000
1759592710.474,-219.727,-18.555,28.320,-103.027,0.000
1759592710.478,-23.926,-22.949,24.902,-92.773,0.000
1759592710.482,19.531,-25.391,18.066,-83.984,0.000
1759592710.485,-164.551,-25.879,14.160,-69.824,0.000
1759592710.489,-168.457,-28.809,9.766,-51.270,0.000
1759592710.493,-8.301,-35.645,4.883,-44.434,0.000
1759592710.497,69.336,-34.180,-0.977,-35.156,0.000
1759592710.501,-67.383,-30.762,-11.230,-19.043,0.000
1759592710.505,-146.484,-34.180,-27.344,-4.395,0.000
1759592710.509,-9.766,-39.551,-29.297,-4.883,0.000
1759592710.513,132.324,-41.016,-24.902,3.906,0.000
1759592710.517,22.461,-41.016,-23.438,22.949,0.000
1759592710.521,-110.840,-47.363,-28.809,36.133,0.000
1759592710.525,-34.180,-40.527,-27.832,46.875,0.000
1759592710.528,194.336,-33.203,-28.320,47.852,0.000
1759592710.532,147.461,-37.598,-34.180,51.758,0.000
1759592710.536,-71.289,-34.180,-33.691,64.453,0.000
1759592710.540,-53.223,-31.738,-38.086,63.477,0.000
1759592710.544,141.602,-33.203,-42.969,57.617,0.000
1759592710.548,190.918,-34.180,-42.480,66.406,0.000
1759592710.552,9.277,-34.180,-42.480,76.660,0.000
1759592710.556,-47.363,-34.668,-41.016,66.406,0.000
1759592710.560,84.961,-36.133,-37.109,66.895,0.000
1759592710.564,195.801,-36.133,-46.387,84.961,0.000
1759592710.567,58.105,-37.109,-48.340,84.473,0.000
1759592710.571,-57.617,-33.691,-32.227,70.801,0.000
1759592710.575,66.895,-27.344,-34.668,74.707,0.000
1759592710.579,231.445,-27.832,-41.016,83.008,0.000
1759592710.583,125.488,-26.367,-33.203,85.449,0.000
1759592710.587,-28.320,-21.484,-26.367,84.473,0.000
1759592710.591,20.508,-25.391,-34.180,77.148,0.000
1759592710.595,181.641,-28.809,-39.062,78.125,0.000
1759592710.599,169.434,-27.832,-38.086,91.309,0.000
1759592710.603,-30.273,-23.926,-33.691,74.219,0.000
1759592710.607,-56.641,-24.902,-34.180,56.641,0.000
1759592710.610,129.883,-31.738,-43.945,68.848,0.000
1759592710.614,194.336,-31.250,-38.086,73.242,0.000
1759592710.618,3.418,-29.297,-36.621,58.594,0.000
1759592710.622,-94.238,-33.203,-47.363,47.852,0.000
1759592710.626,58.594,-31.250,-40.527,49.316,0.000
1759592710.630,203.125,-26.367,-37.109,50.781,0.000
1759592710.634,46.875,-27.344,-37.598,50.293,0.000
1759592710.638,-87.402,-25.879,-39.062,51.270,0.000
1759592710.642,3.418,-22.949,-39.551,48.828,0.000
1759592710.646,172.363,-21.973,-37.109,46.387,0.000
1759592710.650,89.355,-27.344,-37.109,41.992,0.000
1759592710.653,-87.891,-29.297,-39.062,40.527,0.000
1759592710.657,-44.922,-29.785,-37.109,38.574,0.000
1759592710.661,138.672,-28.320,-21.973,30.273,0.000
1759592710.665,129.883,-25.879,-22.949,29.297,0.000
1759592710.669,-66.895,-27.344,-28.809,26.367,0.000
1759592710.673,-96.680,-28.320,-26.855,25.879,0.000
1759592710.677,78.125,-24.902,-27.344,31.738,0.000
1759592710.681,171.387,-27.344,-28.809,35.645,0.000
1759592710.685,-7.812,-33.203,-29.785,32.227,0.000
1759592710.689,-118.164,-31.738,-26.367,27.832,0.000
1759592710.692,13.672,-26.855,-28.320,32.227,0.000
1759592710.696,165.527,-22.949,-32.715,33.691,0.000
1759592710.700,21.484,-24.414,-32.715,38.574,0.000
1759592710.704,-125.488,-29.297,-29.297,28.809,0.000
1759592710.708,-28.809,-29.297,-22.461,27.344,0.000
1759592710.712,172.852,-27.832,-23.438,31.250,0.000
1759592710.716,92.285,-33.691,-27.832,19.531,0.000
