timestamps,TP9,AF7,AF8,TP10,Right AUX
1759599591.116,-959.961,-1000.000,-1000.000,999.512,0.000
1759599591.119,400.879,18.555,-109.863,263.672,0.000
1759599591.123,999.512,999.512,999.512,-1000.000,0.000
1759599591.127,546.875,369.141,179.199,-1000.000,0.000
1759599591.131,-1000.000,-1000.000,-1000.000,530.762,0.000
1759599591.135,-199.219,-283.203,-288.086,570.801,0.000
1759599591.139,999.512,999.512,999.512,-966.309,0.000
1759599591.143,999.512,904.297,486.816,-1000.000,0.000
1759599591.147,-377.441,-693.848,-889.648,-53.223,0.000
1759599591.151,-353.027,-513.672,-619.141,999.512,0.000
1759599591.155,999.512,976.562,784.180,-369.141,0.000
1759599591.158,999.512,999.512,912.598,-1000.000,0.000
1759599591.162,36.133,-50.293,-293.945,-202.148,0.000
1759599591.166,-607.910,-956.055,-948.730,999.512,0.000
1759599591.170,829.590,516.602,443.848,147.949,0.000
1759599591.174,999.512,999.512,999.512,-1000.000,0.000
1759599591.178,225.586,166.992,-62.988,-603.516,0.000
1759599591.182,-1000.000,-1000.000,-1000.000,956.055,0.000
1759599591.186,211.426,-115.723,-164.062,178.223,0.000
1759599591.190,999.512,999.512,999.512,-1000.000,0.000
1759599591.194,696.289,527.832,245.117,-1000.000,0.000
1759599591.198,-872.559,-1000.000,-1000.000,333.496,0.000
1759599591.201,-315.430,-290.527,-279.785,698.242,0.000
1759599591.205,999.512,999.512,982.422,-884.277,0.000
1759599591.209,999.512,999.512,636.719,-1000.000,0.000
1759599591.213,-187.500,-436.523,-663.086,-179.199,0.000
1759599591.217,-337.891,-633.789,-717.285,999.512,0.000
1759599591.221,999.512,912.598,732.910,-185.059,0.000
1759599591.225,999.512,999.512,916.504,-1000.000,0.000
1759599591.229,-20.020,113.281,-271.973,-224.121,0.000
1759599591.233,-761.230,-1000.000,-1000.000,999.512,0.000
1759599591.237,667.969,267.090,279.785,254.883,0.000
1759599591.241,999.512,999.512,999.512,-1000.000,0.000
1759599591.244,345.703,205.078,60.059,-779.785,0.000
1759599591.248,-1000.000,-1000.000,-1000.000,872.559,0.000
1759599591.252,15.625,-246.582,-283.691,384.277,0.000
1759599591.256,999.512,999.512,999.512,-1000.000,0.000
1759599591.260,827.148,672.363,280.762,-1000.000,0.000
1759599591.264,-718.750,-972.656,-1000.000,204.590,0.000
1759599591.268,-331.543,-303.711,-317.871,826.660,0.000
1759599591.272,999.512,999.512,922.852,-726.562,0.000
1759599591.276,999.512,999.512,700.195,-1000.000,0.000
1759599591.280,-77.637,-283.691,-493.164,-187.500,0.000
1759599591.284,-488.281,-746.094,-783.691,999.512,0.000
1759599591.287,927.734,823.730,645.508,-41.016,0.000
1759599591.291,999.512,999.512,982.910,-1000.000,0.000
1759599591.295,90.332,153.809,-130.859,-419.434,0.000
1759599591.299,-907.715,-1000.000,-1000.000,999.512,0.000
1759599591.303,483.887,79.102,24.414,259.766,0.000
1759599591.307,999.512,999.512,999.512,-1000.000,0.000
1759599591.311,447.754,323.242,126.465,-906.250,0.000
1759599591.315,-1000.000,-1000.000,-1000.000,708.496,0.000
1759599591.319,-83.496,-283.203,-293.457,493.652,0.000
1759599591.323,999.512,999.512,999.512,-998.535,0.000
1759599591.326,999.512,829.590,428.711,-1000.000,0.000
1759599591.330,-434.570,-798.828,-975.586,7.812,0.000
1759599591.334,-351.562,-428.223,-520.508,925.781,0.000
1759599591.338,999.512,999.512,839.355,-541.016,0.000
1759599591.342,999.512,999.512,851.562,-1000.000,0.000
1759599591.346,31.738,-130.859,-334.961,-202.148,0.000
1759599591.350,-572.754,-906.250,-893.555,999.512,0.000
1759599591.354,859.375,607.910,512.207,137.207,0.000
1759599591.358,999.512,999.512,999.512,-1000.000,0.000
1759599591.362,113.281,162.598,-67.871,-532.715,0.000
1759599591.366,-1000.000,-1000.000,-1000.000,999.512,0.000
1759599591.369,316.406,-52.734,-202.148,254.395,0.000
1759599591.373,999.512,999.512,999.512,-1000.000,0.000
1759599591.377,613.281,454.590,236.328,-1000.000,0.000
1759599591.381,-938.477,-1000.000,-1000.000,430.176,0.000
1759599591.385,-205.566,-290.039,-290.039,604.492,0.000
1759599591.389,999.512,999.512,999.512,-941.406,0.000
1759599591.393,999.512,966.797,535.156,-1000.000,0.000
1759599591.397,-271.973,-591.797,-814.941,-178.223,0.000
1759599591.401,-360.840,-582.031,-671.875,999.512,0.000
1759599591.405,999.512,983.887,786.133,-266.113,0.000
1759599591.409,999.512,999.512,840.332,-1000.000,0.000
1759599591.412,-140.137,-164.551,-435.547,-11.230,0.000
1759599591.416,-637.695,-942.871,-913.086,999.512,0.000
1759599591.420,802.734,479.980,481.934,154.785,0.000
1759599591.424,999.512,999.512,999.512,-1000.000,0.000
1759599591.428,240.234,170.898,-26.855,-685.059,0.000
1759599591.432,-1000.000,-1000.000,-1000.000,968.262,0.000
1759599591.436,134.277,-166.504,-268.066,266.113,0.000
1759599591.440,999.512,999.512,999.512,-1000.000,0.000
1759599591.444,821.289,569.824,240.234,-1000.000,0.000
1759599591.448,-711.426,-1000.000,-1000.000,215.332,0.000
1759599591.451,-338.867,-292.480,-285.156,771.484,0.000
1759599591.455,999.512,999.512,973.145,-788.574,0.000
1759599591.459,999.512,999.512,643.555,-1000.000,0.000
1759599591.463,-183.105,-369.629,-635.254,-169.434,0.000
1759599591.467,-429.688,-693.848,-704.102,999.512,0.000
1759599591.471,972.168,873.047,739.258,-152.832,0.000
1759599591.475,999.512,999.512,957.031,-1000.000,0.000
1759599591.479,64.453,146.484,-177.246,-320.801,0.000
1759599591.483,-784.668,-1000.000,-1000.000,999.512,0.000
1759599591.487,646.484,158.203,177.734,243.652,0.000
1759599591.491,999.512,999.512,999.512,-1000.000,0.000
1759599591.494,443.359,254.883,86.914,-894.531,0.000
1759599591.498,-1000.000,-1000.000,-1000.000,725.098,0.000
1759599591.502,-36.133,-280.273,-293.457,427.246,0.000
1759599591.506,999.512,999.512,999.512,-1000.000,0.000
1759599591.510,942.383,746.582,356.934,-1000.000,0.000
1759599591.514,-548.340,-899.414,-1000.000,75.195,0.000
1759599591.518,-350.586,-359.375,-406.738,937.988,0.000
1759599591.522,999.512,999.512,895.508,-554.199,0.000
1759599591.526,999.512,999.512,828.125,-1000.000,0.000
1759599591.530,-77.148,-198.730,-372.070,-193.848,0.000
1759599591.533,-506.348,-826.660,-843.750,999.512,0.000
1759599591.537,920.898,721.191,586.426,43.457,0.000
1759599591.541,999.512,999.512,999.512,-1000.000,0.000
1759599591.545,104.004,155.762,-106.934,-496.582,0.000
1759599591.549,-954.102,-1000.000,-1000.000,999.512,0.000
1759599591.553,409.668,31.738,-86.914,259.277,0.000
1759599591.557,999.512,999.512,999.512,-1000.000,0.000
1759599591.561,546.875,365.234,182.617,-1000.000,0.000
1759599591.565,-1000.000,-1000.000,-1000.000,528.320,0.000
1759599591.569,-199.707,-283.691,-289.551,604.004,0.000
1759599591.573,999.512,999.512,999.512,-949.219,0.000
1759599591.576,999.512,894.043,471.680,-1000.000,0.000
1759599591.580,-377.441,-708.496,-906.250,-49.316,0.000
1759599591.584,-353.516,-497.559,-583.008,999.512,0.000
1759599591.588,999.512,978.027,800.781,-365.234,0.000
1759599591.592,999.512,999.512,873.047,-1000.000,0.000
1759599591.596,31.250,-85.938,-351.562,-165.527,0.000
1759599591.600,-567.383,-850.098,-842.773,999.512,0.000
1759599591.604,856.445,699.219,608.398,-35.156,0.000
1759599591.608,999.512,999.512,999.512,-1000.000,0.000
1759599591.612,239.746,163.086,-60.059,-620.605,0.000
1759599591.616,-1000.000,-1000.000,-1000.000,999.512,0.000
1759599591.619,162.598,-97.656,-241.699,266.113,0.000
1759599591.623,999.512,999.512,999.512,-1000.000,0.000
1759599591.627,695.312,505.859,210.938,-1000.000,0.000
1759599591.631,-871.582,-1000.000,-1000.000,335.449,0.000
1759599591.635,-322.266,-289.062,-282.227,698.242,0.000
1759599591.639,999.512,999.512,987.793,-884.277,0.000
1759599591.643,999.512,999.512,604.004,-1000.000,0.000
1759599591.647,-283.691,-470.703,-707.031,-177.734,0.000
1759599591.651,-343.262,-627.441,-692.383,999.512,0.000
1759599591.655,999.512,916.016,729.980,-166.504,0.000
1759599591.659,999.512,999.512,959.473,-1000.000,0.000
1759599591.662,66.895,96.680,-192.871,-312.012,0.000
1759599591.666,-762.207,-1000.000,-1000.000,999.512,0.000
1759599591.670,678.711,300.781,304.199,254.395,0.000
1759599591.674,999.512,999.512,999.512,-1000.000,0.000
1759599591.678,346.680,187.012,40.039,-779.785,0.000
1759599591.682,-1000.000,-1000.000,-1000.000,872.559,0.000
1759599591.686,15.625,-228.516,-279.785,384.766,0.000
1759599591.690,999.512,999.512,999.512,-1000.000,0.000
1759599591.694,827.148,659.668,284.668,-1000.000,0.000
1759599591.698,-717.773,-983.398,-1000.000,209.961,0.000
1759599591.701,-335.938,-302.734,-308.594,827.148,0.000
1759599591.705,999.512,999.512,973.145,-727.539,0.000
1759599591.709,999.512,999.512,678.223,-1000.000,0.000
1759599591.713,-144.043,-299.805,-572.754,-190.918,0.000
1759599591.717,-447.754,-724.121,-774.902,999.512,0.000
1759599591.721,958.008,849.121,646.484,-13.672,0.000
1759599591.725,999.512,999.512,971.191,-1000.000,0.000
1759599591.729,96.191,153.320,-153.809,-422.363,0.000
1759599591.733,-909.180,-1000.000,-1000.000,999.512,0.000
1759599591.737,483.887,90.332,103.027,259.277,0.000
1759599591.741,999.512,999.512,999.512,-1000.000,0.000
1759599591.744,447.754,323.730,116.211,-906.250,0.000
1759599591.748,-1000.000,-1000.000,-1000.000,708.496,0.000
1759599591.752,-91.309,-284.668,-298.828,494.141,0.000
1759599591.756,999.512,999.512,999.512,-999.023,0.000
1759599591.760,958.008,819.824,396.973,-1000.000,0.000
1759599591.764,-534.180,-811.035,-1000.000,12.695,0.000
1759599591.768,-344.727,-418.945,-492.676,932.129,0.000
1759599591.772,999.512,999.512,864.258,-534.668,0.000
1759599591.776,999.512,999.512,795.410,-1000.000,0.000
1759599591.780,31.250,-152.344,-416.504,-203.125,0.000
1759599591.784,-568.848,-884.766,-873.047,999.512,0.000
1759599591.787,861.816,641.113,526.367,145.996,0.000
1759599591.791,999.512,999.512,999.512,-1000.000,0.000
1759599591.795,113.281,161.621,-71.289,-533.691,0.000
1759599591.799,-1000.000,-1000.000,-1000.000,999.512,0.000
1759599591.803,312.012,-37.598,-191.895,258.301,0.000
1759599591.807,999.512,999.512,999.512,-1000.000,0.000
1759599591.811,547.363,441.895,194.824,-1000.000,0.000
1759599591.815,-1000.000,-1000.000,-1000.000,481.934,0.000
1759599591.819,-191.895,-289.062,-289.551,601.074,0.000
1759599591.823,999.512,999.512,999.512,-943.359,0.000
1759599591.826,999.512,956.543,526.855,-1000.000,0.000
1759599591.830,-275.879,-612.305,-837.402,-180.176,0.000
1759599591.834,-346.191,-550.293,-656.250,999.512,0.000
1759599591.838,999.512,958.984,765.625,-197.754,0.000
1759599591.842,999.512,999.512,944.824,-1000.000,0.000
1759599591.846,41.504,11.230,-261.230,-211.914,0.000
1759599591.850,-655.762,-1000.000,-980.469,999.512,0.000
1759599591.854,800.781,414.062,407.227,247.559,0.000
1759599591.858,999.512,999.512,999.512,-1000.000,0.000
1759599591.862,240.234,170.410,-36.621,-636.719,0.000
1759599591.866,-1000.000,-1000.000,-1000.000,999.512,0.000
1759599591.869,127.930,-158.203,-263.672,256.836,0.000
1759599591.873,999.512,999.512,999.512,-1000.000,0.000
1759599591.877,748.535,558.105,216.797,-1000.000,0.000
1759599591.881,-806.641,-1000.000,-1000.000,224.609,0.000
1759599591.885,-324.707,-292.969,-278.809,776.855,0.000
1759599591.889,999.512,999.512,979.004,-786.133,0.000
1759599591.893,999.512,999.512,626.465,-1000.000,0.000
1759599591.897,-183.105,-403.809,-658.691,-187.500,0.000
1759599591.901,-429.688,-679.199,-717.773,999.512,0.000
1759599591.905,972.168,884.766,710.449,-64.453,0.000
1759599591.908,999.512,999.512,957.031,-1000.000,0.000
1759599591.912,64.453,138.672,-187.500,-320.801,0.000
1759599591.916,-788.086,-1000.000,-1000.000,999.512,0.000
1759599591.920,647.949,176.270,218.750,246.094,0.000
1759599591.924,999.512,999.512,999.512,-1000.000,0.000
1759599591.928,346.680,238.770,53.223,-869.629,0.000
1759599591.932,-1000.000,-1000.000,-1000.000,758.301,0.000
1759599591.936,17.090,-279.785,-288.086,436.035,0.000
1759599591.940,999.512,999.512,999.512,-1000.000,0.000
1759599591.944,940.918,713.867,366.699,-1000.000,0.000
1759599591.948,-545.898,-937.500,-1000.000,76.172,0.000
1759599591.951,-350.586,-337.891,-391.602,937.988,0.000
1759599591.955,999.512,999.512,907.715,-554.199,0.000
1759599591.959,999.512,999.512,778.809,-1000.000,0.000
1759599591.963,-75.195,-228.516,-437.500,-195.312,0.000
1759599591.967,-513.672,-818.848,-836.914,999.512,0.000
1759599591.971,937.988,762.207,612.793,23.926,0.000
1759599591.975,999.512,999.512,937.500,-1000.000,0.000
1759599591.979,0.488,67.383,-194.824,-364.746,0.000
1759599591.983,-894.043,-1000.000,-1000.000,999.512,0.000
1759599591.987,485.352,39.062,-43.945,250.977,0.000
1759599591.991,999.512,999.512,999.512,-1000.000,0.000
1759599591.994,546.875,361.328,170.898,-1000.000,0.000
1759599591.998,-1000.000,-1000.000,-1000.000,528.320,0.000
1759599592.002,-199.219,-285.156,-289.062,603.516,0.000
1759599592.006,999.512,999.512,999.512,-949.707,0.000
1759599592.010,999.512,876.953,434.082,-1000.000,0.000
1759599592.014,-377.441,-734.375,-947.754,-49.316,0.000
1759599592.018,-353.516,-485.840,-577.148,999.512,0.000
1759599592.022,999.512,987.305,806.152,-369.141,0.000
1759599592.026,999.512,999.512,891.602,-1000.000,0.000
1759599592.030,31.250,-64.941,-316.895,-202.637,0.000
1759599592.034,-569.824,-941.895,-903.809,999.512,0.000
1759599592.037,856.934,540.039,503.906,146.484,0.000
1759599592.041,999.512,999.512,999.512,-1000.000,0.000
1759599592.045,174.316,163.086,-58.594,-619.629,0.000
1759599592.049,-1000.000,-1000.000,-1000.000,999.512,0.000
1759599592.053,273.438,-76.172,-238.281,265.625,0.000
1759599592.057,999.512,999.512,999.512,-1000.000,0.000
1759599592.061,694.336,479.492,201.660,-1000.000,0.000
1759599592.065,-867.676,-1000.000,-1000.000,335.449,0.000
1759599592.069,-322.266,-287.598,-281.250,698.242,0.000
1759599592.073,999.512,999.512,994.141,-884.277,0.000
1759599592.076,999.512,999.512,584.961,-1000.000,0.000
1759599592.080,-283.691,-510.254,-738.770,-177.734,0.000
1759599592.084,-343.262,-615.723,-691.406,999.512,0.000
1759599592.088,999.512,922.363,729.004,-168.945,0.000
1759599592.092,999.512,999.512,932.129,-1000.000,0.000
1759599592.096,44.922,78.125,-226.562,-273.438,0.000
1759599592.100,-666.992,-1000.000,-1000.000,999.512,0.000
1759599592.104,782.227,331.055,330.078,248.535,0.000
1759599592.108,999.512,999.512,999.512,-1000.000,0.000
1759599592.112,348.633,173.340,16.602,-780.762,0.000
1759599592.116,-1000.000,-1000.000,-1000.000,873.047,0.000
1759599592.119,30.762,-206.055,-285.156,384.766,0.000
1759599592.123,999.512,999.512,999.512,-1000.000,0.000
1759599592.127,826.172,632.812,292.480,-1000.000,0.000
1759599592.131,-716.309,-1000.000,-1000.000,209.473,0.000
1759599592.135,-338.379,-298.340,-311.035,827.148,0.000
1759599592.139,999.512,999.512,972.168,-727.051,0.000
1759599592.143,999.512,999.512,664.062,-1000.000,0.000
1759599592.147,-183.105,-309.570,-589.844,-187.500,0.000
1759599592.151,-429.688,-717.773,-772.461,999.512,0.000
1759599592.155,974.121,854.004,647.949,-41.016,0.000
1759599592.159,999.512,999.512,982.910,-1000.000,0.000
1759599592.162,99.121,150.879,-148.438,-419.434,0.000
1759599592.166,-910.156,-1000.000,-1000.000,999.512,0.000
1759599592.170,483.887,112.793,126.953,259.766,0.000
1759599592.174,999.512,999.512,999.512,-1000.000,0.000
1759599592.178,447.754,295.898,93.262,-906.250,0.000
1759599592.182,-1000.000,-1000.000,-1000.000,707.520,0.000
1759599592.186,-92.285,-282.227,-292.969,498.535,0.000
1759599592.190,999.512,999.512,999.512,-1000.000,0.000
1759599592.194,947.754,801.270,365.723,-1000.000,0.000
1759599592.198,-548.340,-833.496,-1000.000,76.660,0.000
1759599592.201,-360.840,-414.551,-478.516,951.172,0.000
1759599592.205,999.512,999.512,886.230,-591.797,0.000
1759599592.209,999.512,999.512,742.188,-1000.000,0.000
1759599592.213,-192.871,-257.812,-495.605,-20.020,0.000
1759599592.217,-508.789,-846.680,-850.098,999.512,0.000
1759599592.221,895.996,679.199,551.270,116.211,0.000
1759599592.225,999.512,999.512,999.512,-1000.000,0.000
1759599592.229,118.652,160.645,-79.590,-530.273,0.000
1759599592.233,-1000.000,-1000.000,-1000.000,999.512,0.000
1759599592.237,312.012,-22.461,-172.363,262.695,0.000
1759599592.240,999.512,999.512,999.512,-1000.000,0.000
1759599592.244,546.875,431.152,187.012,-1000.000,0.000
1759599592.248,-1000.000,-1000.000,-1000.000,528.809,0.000
1759599592.252,-194.336,-288.574,-288.086,600.098,0.000
1759599592.256,999.512,999.512,991.211,-946.289,0.000
1759599592.260,999.512,948.730,550.293,-1000.000,0.000
1759599592.264,-308.105,-625.000,-799.316,-136.230,0.000
1759599592.268,-348.145,-535.645,-653.320,999.512,0.000
1759599592.272,999.512,967.773,766.602,-245.117,0.000
1759599592.276,999.512,999.512,913.574,-1000.000,0.000
1759599592.279,41.504,-11.719,-275.391,-211.914,0.000
1759599592.283,-655.762,-993.652,-965.820,999.512,0.000
1759599592.287,800.781,447.266,420.898,247.559,0.000
1759599592.291,999.512,999.512,999.512,-1000.000,0.000
1759599592.295,240.234,169.434,-30.273,-636.719,0.000
1759599592.299,-1000.000,-1000.000,-1000.000,999.512,0.000
1759599592.303,123.047,-146.484,-268.066,261.719,0.000
1759599592.307,999.512,999.512,999.512,-1000.000,0.000
1759599592.311,696.289,543.945,246.582,-1000.000,0.000
1759599592.315,-875.000,-1000.000,-1000.000,291.992,0.000
1759599592.319,-314.453,-291.504,-280.273,759.277,0.000
1759599592.322,999.512,999.512,992.676,-815.918,0.000
1759599592.326,999.512,999.512,610.352,-1000.000,0.000
1759599592.330,-183.105,-422.363,-684.570,-189.453,0.000
1759599592.334,-429.688,-662.598,-712.891,999.512,0.000
1759599592.338,972.168,895.020,707.520,-64.453,0.000
1759599592.342,999.512,999.512,949.219,-1000.000,0.000
1759599592.346,64.453,131.836,-196.777,-320.801,0.000
1759599592.350,-788.086,-1000.000,-1000.000,999.512,0.000
1759599592.354,647.461,199.707,251.953,253.906,0.000
1759599592.358,999.512,999.512,999.512,-1000.000,0.000
1759599592.362,345.215,229.492,41.992,-779.785,0.000
1759599592.365,-1000.000,-1000.000,-1000.000,874.023,0.000
1759599592.369,25.879,-269.531,-290.039,382.324,0.000
1759599592.373,999.512,999.512,999.512,-1000.000,0.000
1759599592.377,918.945,701.660,305.664,-1000.000,0.000
1759599592.381,-577.148,-946.289,-1000.000,85.938,0.000
1759599592.385,-347.168,-316.895,-365.723,921.875,0.000
1759599592.389,999.512,999.512,921.387,-576.660,0.000
1759599592.393,999.512,999.512,760.742,-1000.000,0.000
1759599592.397,-77.148,-262.207,-465.332,-175.781,0.000
1759599592.401,-506.348,-763.672,-770.996,999.512,0.000
1759599592.405,919.922,814.941,674.805,-46.387,0.000
1759599592.408,999.512,999.512,991.699,-1000.000,0.000
1759599592.412,88.867,155.762,-95.215,-428.711,0.000
1759599592.416,-905.762,-1000.000,-1000.000,999.512,0.000
1759599592.420,484.863,50.293,-32.227,250.000,0.000
1759599592.424,999.512,999.512,999.512,-1000.000,0.000
1759599592.428,500.977,354.492,133.301,-982.910,0.000
1759599592.432,-1000.000,-1000.000,-1000.000,587.891,0.000
1759599592.436,-137.695,-286.133,-288.574,567.871,0.000
1759599592.440,999.512,999.512,999.512,-964.844,0.000
1759599592.444,999.512,854.980,452.637,-1000.000,0.000
1759599592.448,-373.535,-766.113,-940.430,-51.758,0.000
1759599592.451,-354.492,-469.727,-551.758,999.512,0.000
1759599592.455,999.512,995.117,833.984,-369.141,0.000
1759599592.459,999.512,999.512,843.262,-1000.000,0.000
1759599592.463,31.738,-90.820,-354.004,-202.637,0.000
1759599592.467,-572.754,-931.641,-906.738,999.512,0.000
1759599592.471,859.375,562.012,489.746,146.484,0.000
1759599592.475,999.512,999.512,999.512,-1000.000,0.000
1759599592.479,113.281,163.086,-72.266,-562.988,0.000
1759599592.483,-1000.000,-1000.000,-1000.000,999.512,0.000
1759599592.487,321.289,-67.871,-222.656,253.906,0.000
1759599592.490,999.512,999.512,999.512,-1000.000,0.000
1759599592.494,693.359,469.238,218.750,-1000.000,0.000
1759599592.498,-865.723,-1000.000,-1000.000,335.449,0.000
1759599592.502,-305.176,-289.062,-286.621,698.242,0.000
1759599592.506,999.512,999.512,999.512,-884.277,0.000
1759599592.510,999.512,994.141,531.250,-1000.000,0.000
1759599592.514,-282.227,-546.387,-808.105,-178.223,0.000
1759599592.518,-343.750,-598.145,-678.223,999.512,0.000
1759599592.522,999.512,931.641,735.352,-172.363,0.000
1759599592.526,999.512,999.512,914.551,-1000.000,0.000
1759599592.530,41.504,65.918,-251.465,-212.402,0.000
1759599592.533,-651.855,-1000.000,-1000.000,999.512,0.000
1759599592.537,799.316,346.191,334.961,239.258,0.000
1759599592.541,999.512,999.512,999.512,-1000.000,0.000
1759599592.545,346.680,172.363,25.391,-767.090,0.000
1759599592.549,-1000.000,-1000.000,-1000.000,888.184,0.000
1759599592.553,24.902,-189.941,-282.715,368.164,0.000
1759599592.557,999.512,999.512,999.512,-1000.000,0.000
1759599592.561,826.660,605.469,266.113,-1000.000,0.000
1759599592.565,-716.797,-1000.000,-1000.000,208.496,0.000
1759599592.569,-338.379,-294.922,-297.852,827.637,0.000
1759599592.572,999.512,999.512,975.586,-726.562,0.000
1759599592.576,999.512,999.512,693.359,-1000.000,0.000
1759599592.580,-183.105,-323.242,-583.496,-185.059,0.000
1759599592.584,-429.688,-711.914,-761.230,999.512,0.000
1759599592.588,972.656,858.887,667.969,-62.500,0.000
1759599592.592,999.512,999.512,999.512,-1000.000,0.000
1759599592.596,75.684,148.438,-123.535,-377.441,0.000
1759599592.600,-824.707,-1000.000,-1000.000,999.512,0.000
1759599592.604,595.703,135.254,133.301,252.930,0.000
1759599592.608,999.512,999.512,999.512,-1000.000,0.000
1759599592.611,449.707,278.320,81.543,-907.227,0.000
1759599592.615,-1000.000,-1000.000,-1000.000,708.008,0.000
1759599592.619,-92.285,-280.762,-291.992,498.535,0.000
1759599592.623,999.512,999.512,999.512,-1000.000,0.000
1759599592.627,948.242,782.715,342.285,-1000.000,0.000
1759599592.631,-552.246,-857.422,-1000.000,80.566,0.000
1759599592.635,-349.609,-395.996,-419.434,936.523,0.000
1759599592.639,999.512,999.512,895.020,-554.688,0.000
1759599592.643,999.512,999.512,791.504,-1000.000,0.000
1759599592.647,-77.148,-183.105,-413.086,-198.730,0.000
1759599592.650,-506.348,-846.191,-842.773,999.512,0.000
1759599592.654,922.852,695.801,575.684,93.262,0.000
1759599592.658,999.512,999.512,988.770,-1000.000,0.000
1759599592.662,123.535,158.691,-93.750,-527.344,0.000
1759599592.666,-1000.000,-1000.000,-1000.000,999.512,0.000
1759599592.670,312.012,0.000,-150.391,262.695,0.000
1759599592.674,999.512,999.512,999.512,-1000.000,0.000
1759599592.678,547.363,394.043,180.664,-1000.000,0.000
1759599592.682,-1000.000,-1000.000,-1000.000,528.320,0.000
1759599592.686,-199.707,-284.668,-284.180,604.004,0.000
1759599592.690,999.512,999.512,997.559,-950.195,0.000
1759599592.693,999.512,927.246,534.668,-1000.000,0.000
1759599592.697,-377.930,-659.180,-806.152,-55.176,0.000
1759599592.701,-353.027,-524.902,-641.602,999.512,0.000
1759599592.705,999.512,971.680,765.137,-338.867,0.000
1759599592.709,999.512,999.512,929.688,-1000.000,0.000
1759599592.713,41.016,-29.297,-264.648,-211.426,0.000
1759599592.717,-647.949,-974.609,-961.426,999.512,0.000
1759599592.721,805.664,481.934,430.664,247.070,0.000
1759599592.725,999.512,999.512,999.512,-1000.000,0.000
1759599592.729,241.211,167.969,-24.902,-636.719,0.000
1759599592.733,-1000.000,-1000.000,-1000.000,999.512,0.000
1759599592.736,123.047,-130.859,-257.812,263.672,0.000
1759599592.740,999.512,999.512,999.512,-1000.000,0.000
1759599592.744,696.289,535.645,242.676,-1000.000,0.000
1759599592.748,-873.535,-1000.000,-1000.000,335.449,0.000
1759599592.752,-320.801,-291.992,-279.785,698.242,0.000
1759599592.756,999.512,999.512,993.652,-886.230,0.000
1759599592.760,999.512,999.512,593.750,-1000.000,0.000
1759599592.764,-262.695,-447.266,-715.820,-189.453,0.000
1759599592.768,-353.027,-638.672,-707.520,999.512,0.000
1759599592.772,999.512,910.156,714.355,-84.961,0.000
1759599592.776,999.512,999.512,968.750,-1000.000,0.000
1759599592.779,70.801,116.699,-198.730,-318.848,0.000
1759599592.783,-781.738,-1000.000,-1000.000,999.512,0.000
1759599592.787,656.738,240.723,314.453,253.906,0.000
1759599592.791,999.512,999.512,999.512,-1000.000,0.000
1759599592.795,345.703,217.285,21.973,-779.785,0.000
1759599592.799,-1000.000,-1000.000,-1000.000,873.535,0.000
1759599592.803,20.996,-258.789,-286.621,383.301,0.000
1759599592.807,999.512,999.512,999.512,-1000.000,0.000
1759599592.811,874.512,690.918,278.809,-1000.000,0.000
1759599592.815,-645.996,-955.078,-1000.000,175.781,0.000
1759599592.819,-339.844,-306.641,-342.285,868.652,0.000
1759599592.822,999.512,999.512,941.406,-668.457,0.000
1759599592.826,999.512,999.512,729.004,-1000.000,0.000
1759599592.830,-77.148,-270.996,-495.117,-196.289,0.000
1759599592.834,-506.348,-773.438,-809.082,999.512,0.000
1759599592.838,919.434,792.969,612.305,41.504,0.000
1759599592.842,999.512,999.512,989.746,-1000.000,0.000
1759599592.846,88.867,155.273,-117.676,-428.223,0.000
1759599592.850,-907.227,-1000.000,-1000.000,999.512,0.000
1759599592.854,482.422,60.059,-14.648,260.254,0.000
1759599592.858,999.512,999.512,999.512,-1000.000,0.000
1759599592.861,429.688,321.777,128.906,-888.184,0.000
1759599592.865,-989.746,-1000.000,-1000.000,651.367,0.000
1759599592.869,9.766,-196.777,-208.008,418.945,0.000
1759599592.873,999.512,999.512,999.512,-982.422,0.000
1759599592.877,999.512,842.773,453.125,-1000.000,0.000
1759599592.881,-370.117,-779.297,-967.773,-33.691,0.000
1759599592.885,-355.469,-444.824,-537.598,999.512,0.000
1759599592.889,999.512,999.512,843.750,-377.441,0.000
1759599592.893,999.512,999.512,840.820,-1000.000,0.000
1759599592.897,31.250,-113.770,-357.910,-203.125,0.000
1759599592.901,-572.754,-918.457,-895.508,999.512,0.000
1759599592.904,859.375,586.914,508.301,146.484,0.000
1759599592.908,999.512,999.512,999.512,-1000.000,0.000
1759599592.912,113.281,163.086,-76.172,-533.691,0.000
1759599592.916,-1000.000,-1000.000,-1000.000,999.512,0.000
1759599592.920,317.383,-60.547,-209.473,254.395,0.000
1759599592.924,999.512,999.512,999.512,-1000.000,0.000
1759599592.928,626.953,458.008,192.383,-1000.000,0.000
1759599592.932,-935.547,-1000.000,-1000.000,427.246,0.000
1759599592.936,-280.273,-291.016,-285.645,664.551,0.000
1759599592.940,999.512,999.512,997.070,-904.297,0.000
1759599592.944,999.512,963.379,538.086,-1000.000,0.000
1759599592.947,-281.738,-600.586,-802.246,-180.176,0.000
1759599592.951,-344.238,-576.660,-668.945,999.512,0.000
1759599592.955,999.512,944.336,743.164,-172.852,0.000
1759599592.959,999.512,999.512,928.223,-1000.000,0.000
1759599592.963,41.504,36.621,-244.141,-212.402,0.000
1759599592.967,-655.762,-1000.000,-997.070,999.512,0.000
1759599592.971,800.781,376.953,366.211,245.605,0.000
1759599592.975,999.512,999.512,999.512,-1000.000,0.000
1759599592.979,240.723,171.875,-10.254,-666.016,0.000
1759599592.982,-1000.000,-1000.000,-1000.000,994.141,0.000
1759599592.986,130.371,-176.270,-277.344,298.828,0.000
1759599592.990,999.512,999.512,999.512,-1000.000,0.000
1759599592.994,821.777,571.289,262.695,-1000.000,0.000
1759599592.998,-711.914,-1000.000,-1000.000,205.566,0.000
1759599593.002,-338.867,-291.504,-289.062,829.590,0.000
1759599593.006,999.512,999.512,961.426,-726.562,0.000
1759599593.010,999.512,999.512,714.844,-1000.000,0.000
1759599593.014,-183.105,-361.816,-536.621,-185.059,0.000
1759599593.018,-429.688,-702.637,-758.301,999.512,0.000
1759599593.021,972.168,867.188,674.316,-64.941,0.000
1759599593.025,999.512,999.512,988.281,-1000.000,0.000
1759599593.029,64.453,147.949,-152.832,-320.801,0.000
1759599593.033,-784.668,-1000.000,-1000.000,999.512,0.000
1759599593.037,647.949,145.996,155.273,245.605,0.000
1759599593.041,999.512,999.512,999.512,-1000.000,0.000
1759599593.045,448.242,256.836,70.801,-875.977,0.000
1759599593.049,-1000.000,-1000.000,-1000.000,750.977,0.000
1759599593.053,-82.520,-280.273,-292.480,484.375,0.000
1759599593.057,999.512,999.512,999.512,-1000.000,0.000
1759599593.061,947.266,746.582,373.047,-1000.000,0.000
1759599593.065,-551.270,-900.391,-1000.000,98.633,0.000
1759599593.068,-349.609,-369.629,-419.922,880.371,0.000
1759599593.072,999.512,999.512,912.598,-642.578,0.000
1759599593.076,999.512,999.512,775.879,-1000.000,0.000
1759599593.080,-77.148,-198.242,-453.613,-193.848,0.000
1759599593.084,-506.348,-834.473,-836.426,999.512,0.000
1759599593.088,921.875,712.891,583.008,42.969,0.000
1759599593.092,999.512,999.512,987.793,-1000.000,0.000
1759599593.096,112.793,156.738,-102.051,-474.609,0.000
1759599593.100,-982.422,-1000.000,-1000.000,999.512,0.000
1759599593.104,365.723,20.996,-101.562,254.883,0.000
1759599593.107,999.512,999.512,999.512,-1000.000,0.000
1759599593.111,546.875,383.301,166.992,-1000.000,0.000
1759599593.115,-1000.000,-1000.000,-1000.000,528.320,0.000
1759599593.119,-199.219,-283.691,-291.016,604.004,0.000
1759599593.123,999.512,999.512,999.512,-949.219,0.000
1759599593.127,999.512,920.410,493.164,-1000.000,0.000
1759599593.131,-377.441,-669.922,-879.883,-49.316,0.000
1759599593.135,-353.516,-512.695,-625.977,999.512,0.000
1759599593.139,999.512,977.539,776.855,-369.629,0.000
1759599593.143,999.512,999.512,901.367,-1000.000,0.000
1759599593.147,31.738,-47.363,-287.598,-206.055,0.000
1759599593.150,-573.730,-955.566,-939.941,999.512,0.000
1759599593.154,852.539,516.602,446.289,188.477,0.000
1759599593.158,999.512,999.512,999.512,-1000.000,0.000
1759599593.162,242.676,165.527,-7.324,-627.441,0.000
1759599593.166,-1000.000,-1000.000,-1000.000,999.512,0.000
1759599593.170,145.996,-107.910,-258.301,265.137,0.000
1759599593.174,999.512,999.512,999.512,-1000.000,0.000
1759599593.178,695.801,511.230,232.910,-1000.000,0.000
1759599593.182,-872.070,-1000.000,-1000.000,335.449,0.000
1759599593.186,-322.266,-290.039,-280.762,698.242,0.000
1759599593.190,999.512,999.512,989.746,-884.277,0.000
1759599593.193,999.512,999.512,600.098,-1000.000,0.000
1759599593.197,-284.180,-472.656,-705.566,-177.734,0.000
1759599593.201,-366.699,-629.883,-702.637,999.512,0.000
1759599593.205,999.512,915.039,726.074,-167.969,0.000
1759599593.209,999.512,999.512,952.637,-1000.000,0.000
1759599593.213,71.777,105.469,-212.891,-289.062,0.000
1759599593.217,-790.039,-1000.000,-1000.000,999.512,0.000
1759599593.221,647.461,275.391,289.551,250.488,0.000
1759599593.225,999.512,999.512,999.512,-1000.000,0.000
1759599593.229,345.215,201.660,27.344,-780.273,0.000
1759599593.233,-1000.000,-1000.000,-1000.000,873.047,0.000
1759599593.236,16.602,-241.211,-286.621,384.766,0.000
1759599593.240,999.512,999.512,999.512,-1000.000,0.000
1759599593.244,834.961,673.828,294.922,-1000.000,0.000
1759599593.248,-706.543,-969.727,-1000.000,209.473,0.000
1759599593.252,-333.008,-304.199,-306.641,827.148,0.000
1759599593.256,999.512,999.512,959.473,-728.027,0.000
1759599593.260,999.512,999.512,696.777,-1000.000,0.000
1759599593.264,-82.520,-288.574,-525.879,-194.336,0.000
1759599593.268,-460.449,-735.840,-796.387,999.512,0.000
1759599593.272,940.430,834.961,625.000,13.184,0.000
1759599593.275,999.512,999.512,977.539,-1000.000,0.000
1759599593.279,92.773,153.809,-135.254,-425.293,0.000
1759599593.283,-908.691,-1000.000,-1000.000,999.512,0.000
1759599593.287,483.887,83.496,29.785,259.277,0.000
1759599593.291,999.512,999.512,999.512,-1000.000,0.000
1759599593.295,448.242,326.172,154.785,-906.250,0.000
1759599593.299,-1000.000,-1000.000,-1000.000,707.520,0.000
1759599593.303,-78.613,-283.691,-299.316,498.535,0.000
1759599593.307,999.512,999.512,999.512,-1000.000,0.000
1759599593.311,999.512,833.984,409.668,-1000.000,0.000
1759599593.314,-372.559,-792.969,-991.699,66.895,0.000
1759599593.318,-355.469,-425.293,-512.207,980.957,0.000
1759599593.322,999.512,999.512,846.191,-486.816,0.000
1759599593.326,999.512,999.512,865.723,-1000.000,0.000
1759599593.330,31.738,-137.207,-343.750,-204.102,0.000
1759599593.334,-572.754,-898.438,-886.719,999.512,0.000
1759599593.338,859.375,620.117,529.297,146.484,0.000
1759599593.342,999.512,999.512,999.512,-1000.000,0.000
1759599593.346,113.770,162.109,-54.688,-534.180,0.000
1759599593.350,-1000.000,-1000.000,-1000.000,999.512,0.000
1759599593.353,312.012,-45.898,-208.496,262.207,0.000
1759599593.357,999.512,999.512,999.512,-1000.000,0.000
1759599593.361,546.875,447.754,206.543,-1000.000,0.000
1759599593.365,-1000.000,-1000.000,-1000.000,528.809,0.000
1759599593.369,-193.359,-291.016,-285.645,599.121,0.000
1759599593.373,999.512,999.512,999.512,-945.801,0.000
1759599593.377,999.512,942.871,505.859,-1000.000,0.000
1759599593.381,-219.727,-548.340,-782.715,-162.109,0.000
1759599593.385,-257.812,-472.168,-573.242,999.512,0.000
1759599593.389,999.512,941.406,756.348,-195.801,0.000
1759599593.393,999.512,999.512,921.875,-1000.000,0.000
1759599593.396,43.457,38.086,-251.465,-212.402,0.000
1759599593.400,-655.762,-1000.000,-989.258,999.512,0.000
1759599593.404,800.781,394.043,377.441,247.559,0.000
1759599593.408,999.512,999.512,999.512,-1000.000,0.000
1759599593.412,240.234,170.898,-18.066,-636.719,0.000
1759599593.416,-1000.000,-1000.000,-1000.000,999.512,0.000
1759599593.420,134.277,-167.480,-271.484,260.254,0.000
1759599593.424,999.512,999.512,999.512,-1000.000,0.000
1759599593.428,819.336,564.941,232.910,-1000.000,0.000
1759599593.432,-714.355,-1000.000,-1000.000,267.578,0.000
1759599593.436,-338.379,-292.480,-276.367,794.434,0.000
1759599593.439,999.512,999.512,967.773,-774.902,0.000
1759599593.443,999.512,999.512,682.617,-1000.000,0.000
1759599593.447,-183.105,-389.648,-559.082,-187.500,0.000
1759599593.451,-429.688,-689.453,-743.164,999.512,0.000
1759599593.455,972.168,876.953,678.711,-64.941,0.000
1759599593.459,999.512,999.512,981.445,-1000.000,0.000
1759599593.463,64.453,144.531,-164.551,-320.801,0.000
1759599593.467,-786.621,-1000.000,-1000.000,999.512,0.000
1759599593.471,647.949,170.410,178.223,252.441,0.000
1759599593.475,999.512,999.512,999.512,-1000.000,0.000
1759599593.479,378.418,244.629,104.980,-796.387,0.000
1759599593.482,-1000.000,-1000.000,-1000.000,853.516,0.000
1759599593.486,-6.348,-280.762,-296.387,424.805,0.000
1759599593.490,999.512,999.512,999.512,-1000.000,0.000
1759599593.494,941.895,719.727,330.078,-1000.000,0.000
1759599593.498,-547.363,-932.129,-1000.000,76.172,0.000
1759599593.502,-350.586,-350.098,-400.879,937.988,0.000
1759599593.506,999.512,999.512,910.645,-554.199,0.000
1759599593.510,999.512,999.512,762.695,-1000.000,0.000
1759599593.514,-77.148,-216.309,-459.473,-193.359,0.000
1759599593.518,-506.348,-824.707,-826.172,999.512,0.000
1759599593.522,919.434,727.051,589.844,41.992,0.000
1759599593.525,999.512,999.512,999.512,-1000.000,0.000
1759599593.529,88.867,155.762,-105.469,-428.223,0.000
1759599593.533,-905.273,-1000.000,-1000.000,999.512,0.000
1759599593.537,485.352,33.203,-27.832,248.535,0.000
1759599593.541,999.512,999.512,999.512,-1000.000,0.000
1759599593.545,546.387,366.211,154.297,-996.582,0.000
1759599593.549,-1000.000,-1000.000,-1000.000,564.941,0.000
1759599593.553,-196.289,-284.668,-291.992,599.609,0.000
1759599593.557,999.512,999.512,999.512,-949.219,0.000
1759599593.561,999.512,888.184,462.891,-1000.000,0.000
1759599593.564,-377.441,-717.285,-910.156,-49.316,0.000
1759599593.568,-353.516,-496.094,-611.328,999.512,0.000
1759599593.572,999.512,982.422,791.504,-369.141,0.000
1759599593.576,999.512,999.512,892.578,-1000.000,0.000
1759599593.580,31.250,-50.781,-311.035,-202.148,0.000
1759599593.584,-567.383,-946.289,-935.547,999.512,0.000
1759599593.588,856.445,529.785,455.566,146.484,0.000
1759599593.592,999.512,999.512,999.512,-1000.000,0.000
1759599593.596,241.699,164.551,-40.527,-569.824,0.000
1759599593.600,-1000.000,-1000.000,-1000.000,999.512,0.000
1759599593.604,153.809,-94.727,-248.535,255.371,0.000
1759599593.607,999.512,999.512,999.512,-1000.000,0.000
1759599593.611,695.801,490.234,242.676,-1000.000,0.000
1759599593.615,-872.070,-1000.000,-1000.000,335.449,0.000
1759599593.619,-322.266,-287.598,-285.645,697.754,0.000
1759599593.623,999.512,999.512,999.512,-884.277,0.000
1759599593.627,999.512,999.512,611.816,-1000.000,0.000
1759599593.631,-283.691,-486.328,-731.934,-177.734,0.000
1759599593.635,-343.750,-622.070,-699.707,999.512,0.000
1759599593.639,999.512,918.945,729.980,-170.410,0.000
1759599593.643,999.512,999.512,943.359,-1000.000,0.000
1759599593.647,55.176,89.355,-217.285,-249.023,0.000
1759599593.650,-711.914,-1000.000,-1000.000,999.512,0.000
1759599593.654,733.398,316.406,304.688,244.141,0.000
1759599593.658,999.512,999.512,999.512,-1000.000,0.000
1759599593.662,348.633,187.988,23.438,-781.250,0.000
1759599593.666,-1000.000,-1000.000,-1000.000,873.047,0.000
1759599593.670,15.625,-221.191,-280.273,384.766,0.000
1759599593.674,999.512,999.512,999.512,-1000.000,0.000
1759599593.678,827.148,662.598,276.367,-1000.000,0.000
1759599593.682,-718.262,-978.027,-1000.000,209.473,0.000
1759599593.685,-332.520,-303.223,-310.059,827.148,0.000
1759599593.689,999.512,999.512,954.590,-727.051,0.000
1759599593.693,999.512,999.512,694.824,-1000.000,0.000
1759599593.697,-95.703,-294.922,-538.574,-187.988,0.000
1759599593.701,-433.105,-723.145,-782.227,999.512,0.000
1759599593.705,954.590,849.121,643.066,-40.039,0.000
1759599593.709,999.512,999.512,985.352,-1000.000,0.000
1759599593.713,95.215,152.344,-139.648,-408.203,0.000
1759599593.717,-909.180,-1000.000,-1000.000,999.512,0.000
1759599593.721,484.375,98.145,73.242,257.324,0.000
1759599593.725,999.512,999.512,999.512,-1000.000,0.000
1759599593.728,447.754,308.105,105.469,-906.738,0.000
1759599593.732,-1000.000,-1000.000,-1000.000,707.520,0.000
1759599593.736,-92.285,-283.203,-293.945,498.535,0.000
1759599593.740,999.512,999.512,999.512,-1000.000,0.000
1759599593.744,948.242,808.594,418.457,-1000.000,0.000
1759599593.748,-552.734,-825.684,-982.910,80.566,0.000
1759599593.752,-344.238,-416.016,-492.676,936.523,0.000
1759599593.756,999.512,999.512,857.910,-555.176,0.000
1759599593.760,999.512,999.512,855.957,-1000.000,0.000
1759599593.764,18.555,-159.180,-338.867,-202.637,0.000
1759599593.767,-558.105,-879.395,-882.324,999.512,0.000
1759599593.771,870.605,649.414,526.855,129.883,0.000
1759599593.775,999.512,999.512,999.512,-1000.000,0.000
1759599593.779,115.234,161.621,-51.758,-531.738,0.000
1759599593.783,-1000.000,-1000.000,-1000.000,999.512,0.000
1759599593.787,312.012,-35.156,-187.500,262.207,0.000
1759599593.791,999.512,999.512,999.512,-1000.000,0.000
1759599593.795,546.875,433.594,193.848,-1000.000,0.000
1759599593.799,-1000.000,-1000.000,-1000.000,528.320,0.000
1759599593.803,-193.359,-288.086,-286.133,601.562,0.000
1759599593.807,999.512,999.512,999.512,-948.242,0.000
1759599593.810,999.512,952.637,554.199,-1000.000,0.000
1759599593.814,-299.316,-619.141,-807.129,-112.793,0.000
1759599593.818,-347.656,-545.898,-652.832,999.512,0.000
1759599593.822,999.512,961.914,767.578,-249.512,0.000
1759599593.826,999.512,999.512,910.156,-1000.000,0.000
1759599593.830,41.504,2.441,-272.949,-212.402,0.000
1759599593.834,-655.762,-1000.000,-977.051,999.512,0.000
1759599593.838,800.781,418.945,395.508,247.559,0.000
1759599593.842,999.512,999.512,999.512,-1000.000,0.000
1759599593.846,240.234,170.410,-30.273,-636.719,0.000
1759599593.850,-1000.000,-1000.000,-1000.000,999.512,0.000
1759599593.853,129.883,-157.227,-266.113,263.184,0.000
1759599593.857,999.512,999.512,999.512,-1000.000,0.000
1759599593.861,773.438,558.594,233.887,-1000.000,0.000
1759599593.865,-774.414,-1000.000,-1000.000,326.660,0.000
1759599593.869,-329.590,-292.969,-283.203,710.938,0.000
1759599593.873,999.512,999.512,982.422,-875.977,0.000
1759599593.877,999.512,999.512,639.160,-1000.000,0.000
1759599593.881,-183.105,-408.203,-645.508,-191.406,0.000
1759599593.885,-429.688,-673.340,-732.422,999.512,0.000
1759599593.889,972.168,888.672,694.824,-64.453,0.000
1759599593.893,999.512,999.512,975.098,-1000.000,0.000
1759599593.896,64.453,137.207,-172.363,-320.801,0.000
1759599593.900,-787.598,-1000.000,-1000.000,999.512,0.000
1759599593.904,647.949,185.059,224.609,253.906,0.000
1759599593.908,999.512,999.512,999.512,-1000.000,0.000
1759599593.912,352.051,237.793,114.258,-779.785,0.000
1759599593.916,-1000.000,-1000.000,-1000.000,874.512,0.000
1759599593.920,13.672,-276.855,-299.805,378.418,0.000
1759599593.924,999.512,999.512,999.512,-1000.000,0.000
1759599593.928,940.918,711.426,303.711,-1000.000,0.000
1759599593.932,-546.387,-938.965,-1000.000,91.309,0.000
1759599593.936,-350.586,-338.379,-387.207,922.852,0.000
1759599593.939,999.512,999.512,909.180,-579.590,0.000
1759599593.943,999.512,999.512,772.461,-1000.000,0.000
1759599593.947,-77.148,-235.352,-437.988,-194.336,0.000
1759599593.951,-506.348,-812.012,-827.148,999.512,0.000
1759599593.955,919.922,745.117,604.004,41.992,0.000
1759599593.959,999.512,999.512,988.281,-1000.000,0.000
1759599593.963,88.867,155.762,-121.094,-428.223,0.000
1759599593.967,-905.762,-1000.000,-1000.000,999.512,0.000
1759599593.971,484.863,41.016,-62.012,253.418,0.000
1759599593.975,999.512,999.512,999.512,-1000.000,0.000
1759599593.979,507.812,352.539,158.691,-953.125,0.000
1759599593.982,-1000.000,-1000.000,-1000.000,633.301,0.000
1759599593.986,-148.438,-285.156,-280.762,563.477,0.000
1759599593.990,999.512,999.512,979.492,-964.844,0.000
1759599593.994,999.512,861.816,416.016,-1000.000,0.000
1759599593.998,-374.512,-756.836,-905.273,-51.270,0.000
1759599594.002,-354.492,-476.562,-557.617,999.512,0.000
1759599594.006,999.512,991.211,818.359,-369.141,0.000
1759599594.010,999.512,999.512,854.492,-1000.000,0.000
1759599594.014,31.738,-74.219,-327.637,-202.637,0.000
1759599594.017,-572.266,-938.477,-922.363,999.512,0.000
1759599594.022,860.352,547.852,471.680,146.484,0.000
1759599594.025,999.512,999.512,999.512,-1000.000,0.000
1759599594.029,144.043,163.574,-54.688,-558.594,0.000
1759599594.033,-1000.000,-1000.000,-1000.000,999.512,0.000
1759599594.037,228.516,-75.195,-242.676,253.418,0.000
1759599594.041,999.512,999.512,999.512,-1000.000,0.000
1759599594.045,696.777,474.121,234.375,-1000.000,0.000
1759599594.049,-869.629,-1000.000,-1000.000,339.355,0.000
1759599594.053,-322.266,-287.109,-287.598,698.242,0.000
1759599594.057,999.512,999.512,996.582,-884.277,0.000
1759599594.060,999.512,999.512,574.219,-1000.000,0.000
1759599594.064,-283.691,-515.137,-756.348,-177.734,0.000
1759599594.068,-343.262,-611.816,-692.383,999.512,0.000
1759599594.072,999.512,923.828,737.793,-172.852,0.000
1759599594.076,999.512,999.512,954.102,-1000.000,0.000
1759599594.080,41.504,81.543,-233.398,-212.402,0.000
1759599594.084,-651.855,-1000.000,-1000.000,999.512,0.000
1759599594.088,799.316,330.566,333.496,239.746,0.000
1759599594.092,999.512,999.512,999.512,-1000.000,0.000
1759599594.096,351.562,173.340,22.461,-763.672,0.000
1759599594.100,-1000.000,-1000.000,-1000.000,892.578,0.000
1759599594.103,15.625,-207.031,-281.250,373.047,0.000
1759599594.107,999.512,999.512,999.512,-1000.000,0.000
1759599594.111,827.637,616.211,268.555,-1000.000,0.000
1759599594.115,-717.285,-1000.000,-1000.000,208.984,0.000
1759599594.119,-338.379,-295.898,-294.434,827.637,0.000
1759599594.123,999.512,999.512,962.402,-726.562,0.000
1759599594.127,999.512,999.512,670.898,-1000.000,0.000
1759599594.131,-182.617,-315.430,-575.684,-185.059,0.000
1759599594.135,-429.688,-718.262,-753.418,999.512,0.000
1759599594.139,973.633,854.492,672.852,-62.500,0.000
1759599594.143,999.512,999.512,967.773,-1000.000,0.000
1759599594.146,91.309,150.391,-155.273,-375.977,0.000
1759599594.150,-883.301,-1000.000,-1000.000,999.512,0.000
1759599594.154,519.043,115.723,90.820,252.441,0.000
1759599594.158,999.512,999.512,999.512,-1000.000,0.000
1759599594.162,448.242,281.738,113.281,-907.227,0.000
1759599594.166,-1000.000,-1000.000,-1000.000,706.055,0.000
1759599594.170,-99.609,-280.273,-297.363,505.371,0.000
1759599594.174,999.512,999.512,999.512,-1000.000,0.000
1759599594.178,892.090,795.898,374.023,-1000.000,0.000
1759599594.182,-640.625,-842.773,-1000.000,168.945,0.000
1759599594.186,-334.961,-405.273,-457.031,925.293,0.000
1759599594.189,999.512,999.512,866.699,-554.199,0.000
1759599594.193,999.512,999.512,846.680,-1000.000,0.000
1759599594.197,-13.672,-168.945,-333.496,-197.754,0.000
1759599594.201,-532.715,-853.516,-867.676,999.512,0.000
1759599594.205,892.090,684.570,543.945,83.984,0.000
1759599594.209,999.512,999.512,999.512,-1000.000,0.000
1759599594.213,118.652,160.156,-67.871,-526.367,0.000
1759599594.217,-1000.000,-1000.000,-1000.000,999.512,0.000
1759599594.221,312.012,-19.043,-162.109,263.184,0.000
1759599594.225,999.512,999.512,999.512,-1000.000,0.000
1759599594.229,546.875,430.176,209.473,-1000.000,0.000
1759599594.232,-1000.000,-1000.000,-1000.000,528.320,0.000
1759599594.236,-196.289,-289.551,-289.062,604.004,0.000
1759599594.240,999.512,999.512,999.512,-949.707,0.000
1759599594.244,999.512,940.918,521.484,-1000.000,0.000
1759599594.248,-335.449,-637.695,-849.121,-52.734,0.000
1759599594.252,-350.098,-534.180,-643.066,999.512,0.000
1759599594.256,999.512,967.773,767.578,-349.609,0.000
1759599594.260,999.512,999.512,908.691,-1000.000,0.000
1759599594.264,43.457,-11.230,-272.461,-211.426,0.000
1759599594.268,-662.598,-990.723,-966.797,999.512,0.000
1759599594.272,819.336,450.684,437.012,210.449,0.000
1759599594.275,999.512,999.512,983.398,-1000.000,0.000
1759599594.279,151.855,168.945,-104.004,-545.898,0.000
1759599594.283,-1000.000,-1000.000,-1000.000,999.512,0.000
1759599594.287,123.047,-143.555,-254.395,264.160,0.000
1759599594.291,999.512,999.512,999.512,-1000.000,0.000
1759599594.295,696.289,544.434,229.004,-1000.000,0.000
1759599594.299,-875.000,-1000.000,-1000.000,335.449,0.000
1759599594.303,-314.453,-291.504,-280.273,698.242,0.000
1759599594.307,999.512,999.512,985.352,-886.230,0.000
1759599594.311,999.512,999.512,612.305,-1000.000,0.000
1759599594.315,-182.617,-422.363,-681.641,-190.430,0.000
1759599594.318,-415.527,-660.645,-717.773,999.512,0.000
1759599594.322,976.562,895.996,706.543,-78.613,0.000
1759599594.326,999.512,999.512,975.098,-1000.000,0.000
1759599594.330,65.430,128.418,-177.734,-319.824,0.000
1759599594.334,-788.574,-1000.000,-1000.000,999.512,0.000
1759599594.338,647.949,210.449,232.422,253.906,0.000
1759599594.342,999.512,999.512,999.512,-1000.000,0.000
1759599594.346,345.215,229.492,61.035,-779.785,0.000
1759599594.350,-1000.000,-1000.000,-1000.000,874.023,0.000
1759599594.354,19.043,-276.367,-304.688,386.719,0.000
1759599594.357,999.512,999.512,999.512,-1000.000,0.000
1759599594.361,869.629,637.695,250.977,-1000.000,0.000
1759599594.365,-364.746,-759.277,-942.871,23.926,0.000
1759599594.369,26.855,58.105,8.301,609.863,0.000
1759599594.373,999.512,999.512,911.133,-655.273,0.000
1759599594.377,999.512,999.512,771.973,-1000.000,0.000
1759599594.381,-62.012,-228.027,-442.871,-207.520,0.000
1759599594.385,-506.836,-798.340,-828.613,999.512,0.000
1759599594.389,919.434,761.719,606.934,41.992,0.000
1759599594.393,999.512,999.512,983.398,-1000.000,0.000
1759599594.397,88.867,155.273,-129.395,-428.223,0.000
1759599594.400,-906.738,-1000.000,-1000.000,999.512,0.000
1759599594.404,483.887,48.828,-30.762,258.301,0.000
1759599594.408,999.512,999.512,999.512,-1000.000,0.000
1759599594.412,471.680,349.121,150.391,-908.203,0.000
1759599594.416,-1000.000,-1000.000,-1000.000,704.102,0.000
1759599594.420,-94.238,-285.645,-291.016,533.203,0.000
1759599594.424,999.512,999.512,999.512,-976.562,0.000
1759599594.428,999.512,848.633,441.406,-1000.000,0.000
1759599594.432,-371.094,-774.414,-948.242,-53.223,0.000
1759599594.436,-354.980,-462.891,-562.500,999.512,0.000
1759599594.439,999.512,997.559,817.871,-369.141,0.000
1759599594.443,999.512,999.512,862.793,-1000.000,0.000
1759599594.447,31.250,-89.844,-329.590,-202.637,0.000
1759599594.451,-572.754,-930.664,-915.039,999.512,0.000
1759599594.455,859.375,562.988,478.516,146.484,0.000
1759599594.459,999.512,999.512,999.512,-1000.000,0.000
1759599594.463,113.281,163.086,-56.152,-534.180,0.000
1759599594.467,-1000.000,-1000.000,-1000.000,999.512,0.000
1759599594.471,321.777,-67.383,-232.910,250.488,0.000
1759599594.475,999.512,999.512,999.512,-1000.000,0.000
1759599594.478,694.336,467.773,210.938,-1000.000,0.000
1759599594.482,-866.699,-1000.000,-1000.000,366.211,0.000
1759599594.486,-322.266,-289.062,-282.227,683.105,0.000
1759599594.490,999.512,999.512,989.258,-893.066,0.000
1759599594.494,999.512,988.770,598.633,-1000.000,0.000
1759599594.498,-283.691,-556.152,-728.516,-179.199,0.000
1759599594.502,-343.750,-598.633,-685.547,999.512,0.000
1759599594.506,999.512,931.152,734.863,-172.363,0.000
1759599594.510,999.512,999.512,999.512,-1000.000,0.000
1759599594.514,41.504,66.895,-188.477,-212.402,0.000
1759599594.517,-652.344,-1000.000,-1000.000,999.512,0.000
1759599594.521,800.293,344.727,340.332,242.676,0.000
1759599594.525,999.512,999.512,999.512,-1000.000,0.000
1759599594.529,327.148,172.363,-1.953,-713.379,0.000
1759599594.533,-1000.000,-1000.000,-1000.000,944.336,0.000
1759599594.537,28.809,-192.383,-275.391,329.590,0.000
1759599594.541,999.512,999.512,999.512,-1000.000,0.000
1759599594.545,827.148,593.750,247.070,-1000.000,0.000
1759599594.549,-716.797,-1000.000,-1000.000,206.543,0.000
1759599594.553,-338.379,-292.480,-291.504,828.613,0.000
1759599594.557,999.512,999.512,971.191,-726.562,0.000
1759599594.561,999.512,999.512,693.848,-1000.000,0.000
1759599594.564,-183.105,-324.707,-566.895,-185.059,0.000
1759599594.568,-429.199,-711.426,-759.277,999.512,0.000
1759599594.572,972.656,859.375,670.410,-63.965,0.000
1759599594.576,999.512,999.512,976.562,-1000.000,0.000
1759599594.580,72.754,148.926,-155.762,-338.867,0.000
1759599594.584,-814.941,-1000.000,-1000.000,999.512,0.000
1759599594.588,608.398,135.742,113.770,246.094,0.000
1759599594.592,999.512,999.512,999.512,-1000.000,0.000
1759599594.596,450.195,264.160,104.980,-908.203,0.000
1759599594.600,-1000.000,-1000.000,-1000.000,707.520,0.000
1759599594.603,-91.797,-279.297,-297.363,498.535,0.000
1759599594.607,999.512,999.512,999.512,-1000.000,0.000
1759599594.611,948.242,772.461,368.164,-1000.000,0.000
1759599594.615,-552.246,-870.117,-1000.000,80.566,0.000
1759599594.619,-349.609,-390.625,-448.242,936.523,0.000
1759599594.623,999.512,999.512,873.535,-554.199,0.000
1759599594.627,999.512,999.512,805.176,-1000.000,0.000
1759599594.631,-74.219,-177.246,-381.836,-193.359,0.000
1759599594.635,-505.859,-850.098,-861.328,999.512,0.000
1759599594.639,921.875,690.918,546.387,44.922,0.000
1759599594.643,999.512,999.512,999.512,-1000.000,0.000
1759599594.646,123.535,158.691,-69.336,-506.348,0.000
1759599594.650,-1000.000,-1000.000,-1000.000,999.512,0.000
1759599594.654,312.012,-2.930,-140.625,260.742,0.000
1759599594.658,999.512,999.512,999.512,-1000.000,0.000
1759599594.662,547.363,405.273,220.703,-1000.000,0.000
1759599594.666,-1000.000,-1000.000,-1000.000,528.320,0.000
1759599594.670,-199.707,-286.621,-294.922,604.004,0.000
1759599594.674,999.512,999.512,999.512,-949.219,0.000
1759599594.678,999.512,927.246,491.699,-1000.000,0.000
1759599594.682,-377.441,-659.180,-890.625,-49.316,0.000
1759599594.686,-353.516,-528.809,-636.230,999.512,0.000
1759599594.689,999.512,970.703,771.484,-369.629,0.000
1759599594.693,999.512,999.512,915.527,-1000.000,0.000
1759599594.697,41.992,-32.227,-275.391,-208.984,0.000
1759599594.701,-655.762,-979.980,-961.914,999.512,0.000
1759599594.705,800.781,475.098,434.570,226.074,0.000
1759599594.709,999.512,999.512,999.512,-1000.000,0.000
1759599594.713,240.234,168.457,-36.621,-633.789,0.000
1759599594.717,-1000.000,-1000.000,-1000.000,999.512,0.000
1759599594.721,123.047,-133.301,-259.277,264.160,0.000
1759599594.725,999.512,999.512,999.512,-1000.000,0.000
1759599594.729,696.289,527.832,222.656,-1000.000,0.000
1759599594.732,-873.047,-1000.000,-1000.000,335.449,0.000
1759599594.736,-321.777,-291.016,-281.250,698.242,0.000
1759599594.740,999.512,999.512,979.004,-885.742,0.000
1759599594.744,999.512,999.512,644.531,-1000.000,0.000
1759599594.748,-277.344,-451.660,-653.320,-185.547,0.000
1759599594.752,-375.000,-642.090,-716.309,999.512,0.000
1759599594.756,999.512,908.203,715.332,-111.816,0.000
1759599594.760,999.512,999.512,947.266,-1000.000,0.000
1759599594.764,71.289,114.746,-200.684,-316.895,0.000
1759599594.767,-789.551,-1000.000,-1000.000,999.512,0.000
1759599594.772,647.461,236.328,250.488,254.395,0.000
1759599594.775,999.512,999.512,999.512,-1000.000,0.000
1759599594.779,345.215,211.426,55.664,-779.785,0.000
1759599594.783,-1000.000,-1000.000,-1000.000,873.047,0.000
1759599594.787,15.625,-254.883,-288.086,383.789,0.000
1759599594.791,999.512,999.512,999.512,-1000.000,0.000
1759599594.795,827.637,685.059,366.699,-1000.000,0.000
1759599594.799,-718.750,-960.449,-1000.000,199.707,0.000
1759599594.803,-331.543,-308.594,-379.395,831.055,0.000
1759599594.807,999.512,999.512,931.641,-721.680,0.000
1759599594.811,999.512,999.512,732.910,-1000.000,0.000
1759599594.814,-77.148,-277.832,-500.488,-197.754,0.000
1759599594.818,-506.348,-780.762,-810.547,999.512,0.000
1759599594.822,919.434,786.621,615.723,41.992,0.000
1759599594.826,999.512,999.512,999.512,-1000.000,0.000
1759599594.830,88.867,155.273,-124.023,-428.223,0.000
1759599594.834,-907.227,-1000.000,-1000.000,999.512,0.000
1759599594.838,483.887,58.594,7.324,258.789,0.000
1759599594.842,999.512,999.512,999.512,-1000.000,0.000
1759599594.846,447.754,333.984,159.668,-906.250,0.000
1759599594.850,-1000.000,-1000.000,-1000.000,708.008,0.000
1759599594.853,-78.613,-284.180,-294.434,499.512,0.000
1759599594.857,999.512,999.512,999.512,-996.582,0.000
1759599594.861,999.512,840.332,434.082,-1000.000,0.000
1759599594.865,-371.582,-785.156,-966.309,-20.996,0.000
1759599594.869,-359.375,-451.172,-531.250,999.512,0.000
1759599594.873,999.512,999.512,849.609,-416.992,0.000
1759599594.877,999.512,999.512,831.055,-1000.000,0.000
1759599594.881,136.230,-96.680,-278.320,-203.125,0.000
1759599594.885,-391.113,-891.602,-758.789,999.512,0.000
1759599594.889,841.797,577.148,511.230,146.484,0.000
1759599594.893,999.512,999.512,999.512,-1000.000,0.000
1759599594.896,118.652,164.062,-62.012,-533.691,0.000
1759599594.900,-1000.000,-1000.000,-1000.000,999.512,0.000
1759599594.904,317.871,-61.523,-223.633,253.906,0.000
1759599594.908,999.512,999.512,999.512,-1000.000,0.000
1759599594.912,631.836,461.914,201.172,-1000.000,0.000
1759599594.916,-927.734,-1000.000,-1000.000,421.875,0.000
1759599594.920,-267.090,-291.016,-284.180,648.438,0.000
1759599594.924,999.512,999.512,988.770,-914.551,0.000
1759599594.928,999.512,966.797,565.430,-1000.000,0.000
1759599594.932,-280.273,-594.238,-762.207,-181.641,0.000
1759599594.936,-344.727,-583.496,-674.316,999.512,0.000
1759599594.939,999.512,940.918,740.723,-172.363,0.000
1759599594.943,999.512,999.512,938.477,-1000.000,0.000
1759599594.947,41.504,39.062,-224.609,-212.402,0.000
1759599594.951,-655.762,-1000.000,-999.512,999.512,0.000
1759599594.955,801.270,367.188,352.051,247.070,0.000
1759599594.959,999.512,999.512,999.512,-1000.000,0.000
1759599594.963,244.141,171.875,13.672,-648.438,0.000
1759599594.967,-1000.000,-1000.000,-1000.000,999.512,0.000
1759599594.971,108.887,-176.758,-278.320,292.480,0.000
1759599594.975,999.512,999.512,999.512,-1000.000,0.000
1759599594.979,823.730,573.730,267.090,-1000.000,0.000
1759599594.982,-712.891,-1000.000,-1000.000,204.590,0.000
1759599594.986,-338.867,-291.504,-292.480,829.102,0.000
1759599594.990,999.512,999.512,979.492,-726.562,0.000
1759599594.994,999.512,999.512,679.199,-1000.000,0.000
1759599594.998,-182.617,-352.051,-590.820,-185.059,0.000
1759599595.002,-429.688,-704.590,-750.977,999.512,0.000
1759599595.006,972.168,865.723,673.828,-64.453,0.000
1759599595.010,999.512,999.512,967.773,-1000.000,0.000
1759599595.014,64.453,148.926,-166.016,-320.801,0.000
1759599595.018,-784.668,-1000.000,-1000.000,999.512,0.000
1759599595.021,647.949,137.695,164.551,243.652,0.000
1759599595.025,999.512,999.512,999.512,-1000.000,0.000
1759599595.029,450.684,254.883,99.609,-895.996,0.000
1759599595.033,-1000.000,-1000.000,-1000.000,724.609,0.000
1759599595.037,-92.773,-279.785,-294.434,492.676,0.000
1759599595.041,999.512,999.512,999.512,-1000.000,0.000
1759599595.045,948.242,745.605,354.492,-1000.000,0.000
1759599595.049,-552.246,-902.344,-1000.000,80.566,0.000
1759599595.053,-349.609,-376.465,-434.082,936.523,0.000
1759599595.057,999.512,999.512,887.207,-554.199,0.000
1759599595.061,999.512,999.512,788.574,-1000.000,0.000
1759599595.064,-77.148,-197.266,-418.457,-193.359,0.000
1759599595.068,-506.348,-840.820,-840.332,999.512,0.000
1759599595.072,921.875,705.566,579.590,42.969,0.000
1759599595.076,999.512,999.512,999.512,-1000.000,0.000
1759599595.080,116.699,157.227,-84.961,-481.934,0.000
1759599595.084,-995.605,-1000.000,-1000.000,999.512,0.000
1759599595.088,345.215,13.672,-143.555,256.348,0.000
1759599595.092,999.512,999.512,999.512,-1000.000,0.000
1759599595.096,546.875,382.324,184.570,-1000.000,0.000
1759599595.100,-1000.000,-1000.000,-1000.000,528.320,0.000
1759599595.104,-201.172,-286.133,-295.410,604.004,0.000
1759599595.107,999.512,999.512,999.512,-949.219,0.000
1759599595.111,999.512,896.484,513.672,-1000.000,0.000
1759599595.115,-321.289,-622.559,-814.941,-49.316,0.000
1759599595.119,-265.137,-427.734,-556.152,999.512,0.000
1759599595.123,999.512,965.332,776.855,-369.629,0.000
1759599595.127,999.512,999.512,943.359,-1000.000,0.000
1759599595.131,37.598,-42.969,-271.973,-207.031,0.000
1759599595.135,-600.098,-963.379,-954.102,999.512,0.000
1759599595.139,836.426,504.883,448.730,202.148,0.000
1759599595.142,999.512,999.512,999.512,-1000.000,0.000
1759599595.146,244.629,167.480,-47.852,-630.371,0.000
1759599595.150,-1000.000,-1000.000,-1000.000,999.512,0.000
1759599595.154,123.047,-121.094,-253.906,265.137,0.000
1759599595.158,999.512,999.512,999.512,-1000.000,0.000
1759599595.162,696.289,515.625,213.379,-1000.000,0.000
1759599595.166,-873.047,-1000.000,-1000.000,335.449,0.000
1759599595.170,-322.266,-289.062,-278.809,697.754,0.000
1759599595.174,999.512,999.512,988.770,-884.277,0.000
1759599595.178,999.512,999.512,597.656,-1000.000,0.000
1759599595.182,-283.691,-456.055,-707.520,-179.199,0.000
1759599595.185,-345.215,-636.719,-710.449,999.512,0.000
1759599595.189,999.512,912.109,717.773,-156.250,0.000
1759599595.193,999.512,999.512,947.266,-1000.000,0.000
1759599595.197,73.730,104.492,-217.773,-312.988,0.000
1759599595.201,-790.527,-1000.000,-1000.000,999.512,0.000
1759599595.205,647.461,258.301,270.996,254.395,0.000
1759599595.209,999.512,999.512,999.512,-1000.000,0.000
1759599595.213,345.215,191.895,46.875,-779.785,0.000
1759599595.217,-1000.000,-1000.000,-1000.000,872.559,0.000
1759599595.221,15.625,-244.629,-287.598,384.766,0.000
1759599595.225,999.512,999.512,999.512,-1000.000,0.000
1759599595.228,827.148,676.270,303.223,-1000.000,0.000
1759599595.232,-718.750,-969.238,-1000.000,209.473,0.000
1759599595.236,-331.543,-304.199,-347.656,827.148,0.000
1759599595.240,999.512,999.512,927.246,-728.027,0.000
1759599595.244,999.512,999.512,762.207,-1000.000,0.000
1759599595.248,-77.637,-282.227,-455.078,-194.824,0.000
1759599595.252,-495.117,-754.883,-805.176,999.512,0.000
1759599595.256,924.316,814.453,619.141,16.602,0.000
1759599595.260,999.512,999.512,999.512,-1000.000,0.000
1759599595.264,89.844,154.297,-85.449,-425.293,0.000
1759599595.268,-907.715,-1000.000,-1000.000,999.512,0.000
1759599595.271,483.887,74.707,15.137,258.789,0.000
1759599595.275,999.512,999.512,999.512,-1000.000,0.000
1759599595.279,447.754,318.848,125.488,-906.250,0.000
1759599595.283,-1000.000,-1000.000,-1000.000,708.496,0.000
1759599595.287,-92.773,-283.691,-294.434,494.629,0.000
1759599595.291,999.512,999.512,999.512,-1000.000,0.000
1759599595.295,948.730,820.312,414.062,-1000.000,0.000
1759599595.299,-551.758,-811.035,-990.723,-2.441,0.000
1759599595.303,-343.750,-430.176,-512.695,999.512,0.000
1759599595.307,999.512,999.512,843.750,-429.199,0.000
1759599595.311,999.512,999.512,863.770,-1000.000,0.000
1759599595.314,31.738,-138.184,-330.566,-203.125,0.000
1759599595.318,-572.754,-907.227,-886.230,999.512,0.000
1759599595.322,859.375,609.375,529.297,146.484,0.000
1759599595.326,999.512,999.512,999.512,-1000.000,0.000
1759599595.330,113.281,163.574,-81.055,-533.691,0.000
1759599595.334,-1000.000,-1000.000,-1000.000,999.512,0.000
1759599595.338,312.500,-60.059,-217.773,254.395,0.000
1759599595.342,999.512,999.512,999.512,-1000.000,0.000
1759599595.346,550.293,449.707,192.871,-1000.000,0.000
1759599595.350,-1000.000,-1000.000,-1000.000,430.176,0.000
1759599595.354,-229.492,-289.551,-262.695,629.883,0.000
1759599595.357,999.512,999.512,937.988,-926.270,0.000
1759599595.361,999.512,960.938,443.848,-1000.000,0.000
1759599595.365,-278.809,-604.492,-781.738,-183.105,0.000
1759599595.369,-345.215,-570.312,-667.480,999.512,0.000
1759599595.373,999.512,948.730,747.559,-172.363,0.000
1759599595.377,999.512,999.512,930.664,-1000.000,0.000
1759599595.381,41.504,22.461,-254.883,-212.402,0.000
1759599595.385,-655.762,-1000.000,-992.676,999.512,0.000
1759599595.389,800.781,385.742,371.094,245.605,0.000
1759599595.393,999.512,999.512,999.512,-1000.000,0.000
1759599595.396,240.234,171.387,6.348,-670.410,0.000
1759599595.400,-1000.000,-1000.000,-1000.000,986.328,0.000
1759599595.404,134.277,-169.434,-278.320,263.184,0.000
1759599595.408,999.512,999.512,999.512,-1000.000,0.000
1759599595.412,821.289,567.871,276.855,-1000.000,0.000
1759599595.416,-711.426,-1000.000,-1000.000,206.055,0.000
1759599595.420,-338.867,-291.016,-286.621,812.012,0.000
1759599595.424,999.512,999.512,976.562,-746.582,0.000
1759599595.428,999.512,999.512,650.879,-1000.000,0.000
1759599595.432,-183.105,-360.352,-613.281,-186.035,0.000
1759599595.436,-429.199,-694.336,-746.582,999.512,0.000
1759599595.439,972.168,872.070,680.176,-64.941,0.000
1759599595.443,999.512,999.512,966.309,-1000.000,0.000
1759599595.447,64.453,146.484,-167.969,-320.801,0.000
1759599595.451,-786.133,-1000.000,-1000.000,999.512,0.000
1759599595.455,648.438,155.273,186.523,243.652,0.000
1759599595.459,999.512,999.512,999.512,-1000.000,0.000
1759599595.463,407.715,247.559,54.199,-894.531,0.000
1759599595.467,-1000.000,-1000.000,-1000.000,726.074,0.000
1759599595.471,-80.566,-280.762,-292.480,472.168,0.000
1759599595.475,999.512,999.512,999.512,-1000.000,0.000
1759599595.479,948.730,721.191,340.332,-1000.000,0.000
1759599595.482,-551.758,-931.641,-1000.000,78.613,0.000
1759599595.486,-349.609,-361.328,-421.875,937.012,0.000
1759599595.490,999.512,999.512,894.043,-554.199,0.000
1759599595.494,999.512,999.512,802.246,-1000.000,0.000
1759599595.498,-77.148,-207.520,-416.992,-193.359,0.000
1759599595.502,-506.348,-830.566,-841.797,999.512,0.000
1759599595.506,919.922,718.750,583.496,42.969,0.000
1759599595.510,999.512,999.512,990.723,-1000.000,0.000
1759599595.514,93.262,155.762,-106.934,-490.234,0.000
1759599595.518,-919.434,-1000.000,-1000.000,999.512,0.000
1759599595.521,463.379,31.738,-103.027,257.812,0.000
1759599595.525,999.512,999.512,999.512,-1000.000,0.000
1759599595.529,546.875,363.770,168.945,-1000.000,0.000
1759599595.533,-1000.000,-1000.000,-1000.000,528.320,0.000
1759599595.537,-199.219,-283.691,-287.109,604.004,0.000
1759599595.541,999.512,999.512,999.023,-949.219,0.000
1759599595.545,999.512,888.672,558.594,-1000.000,0.000
1759599595.549,-377.441,-716.797,-801.270,-49.316,0.000
1759599595.553,-353.516,-502.930,-633.301,999.512,0.000
1759599595.557,999.512,979.980,786.133,-369.141,0.000
1759599595.560,999.512,999.512,890.625,-1000.000,0.000
1759599595.564,31.250,-54.688,-311.035,-204.102,0.000
1759599595.568,-567.383,-955.078,-935.547,999.512,0.000
1759599595.572,856.934,520.020,459.961,163.086,0.000
1759599595.576,999.512,999.512,999.512,-1000.000,0.000
1759599595.580,247.070,165.527,-50.781,-624.512,0.000
1759599595.584,-1000.000,-1000.000,-1000.000,999.512,0.000
1759599595.588,123.047,-104.492,-246.094,265.625,0.000
1759599595.592,999.512,999.512,999.512,-1000.000,0.000
1759599595.596,696.289,500.000,242.188,-1000.000,0.000
1759599595.600,-873.047,-1000.000,-1000.000,335.449,0.000
1759599595.603,-322.266,-289.062,-283.203,697.754,0.000
1759599595.607,999.512,999.512,991.211,-884.277,0.000
1759599595.611,999.512,999.512,573.242,-1000.000,0.000
1759599595.615,-283.691,-484.375,-749.512,-177.734,0.000
1759599595.619,-343.262,-628.418,-690.430,999.512,0.000
1759599595.623,999.512,916.016,731.445,-166.992,0.000
1759599595.627,999.512,999.512,939.453,-1000.000,0.000
1759599595.631,64.453,93.750,-225.586,-307.129,0.000
1759599595.635,-750.977,-1000.000,-1000.000,999.512,0.000
1759599595.639,690.918,297.363,322.266,253.906,0.000
1759599595.642,999.512,999.512,999.512,-1000.000,0.000
1759599595.646,347.168,179.688,19.531,-779.785,0.000
1759599595.650,-1000.000,-1000.000,-1000.000,872.559,0.000
1759599595.654,15.625,-229.492,-285.156,384.766,0.000
1759599595.658,999.512,999.512,999.512,-1000.000,0.000
1759599595.662,827.637,648.926,280.762,-1000.000,0.000
1759599595.666,-717.773,-995.117,-1000.000,209.473,0.000
1759599595.670,-336.914,-300.293,-320.312,827.148,0.000
1759599595.674,999.512,999.512,949.219,-728.027,0.000
1759599595.678,999.512,999.512,708.984,-1000.000,0.000
1759599595.682,-160.156,-301.758,-519.531,-193.359,0.000
1759599595.685,-457.520,-730.957,-784.180,999.512,0.000
1759599595.689,956.055,840.332,633.301,6.348,0.000
1759599595.693,999.512,999.512,988.281,-1000.000,0.000
1759599595.697,77.148,135.254,-138.672,-405.762,0.000
1759599595.701,-852.539,-1000.000,-1000.000,999.512,0.000
1759599595.705,572.754,176.758,134.277,170.898,0.000
1759599595.709,999.512,999.512,999.512,-1000.000,0.000
1759599595.713,448.242,319.336,130.371,-906.250,0.000
1759599595.717,-1000.000,-1000.000,-1000.000,706.055,0.000
1759599595.721,-90.820,-283.691,-279.297,493.652,0.000
1759599595.725,999.512,999.512,992.188,-998.535,0.000
1759599595.728,958.984,823.730,354.492,-1000.000,0.000
1759599595.732,-532.715,-806.641,-979.492,-0.488,0.000
1759599595.736,-344.727,-423.828,-503.418,944.824,0.000
1759599595.740,999.512,999.512,868.164,-511.230,0.000
1759599595.744,999.512,999.512,817.383,-1000.000,0.000
1759599595.748,31.738,-150.391,-409.180,-204.590,0.000
1759599595.752,-572.754,-892.090,-873.535,999.512,0.000
1759599595.756,859.375,631.348,534.668,127.930,0.000
1759599595.760,999.512,999.512,996.094,-1000.000,0.000
1759599595.764,113.281,161.621,-84.961,-445.801,0.000
1759599595.768,-1000.000,-1000.000,-1000.000,999.512,0.000
1759599595.771,312.012,-39.062,-181.152,261.230,0.000
1759599595.775,999.512,999.512,999.512,-1000.000,0.000
1759599595.779,546.875,440.918,203.125,-1000.000,0.000
1759599595.783,-1000.000,-1000.000,-1000.000,518.555,0.000
1759599595.787,-193.359,-289.062,-286.133,599.121,0.000
1759599595.791,999.512,999.512,994.141,-943.848,0.000
1759599595.795,999.512,956.055,523.438,-1000.000,0.000
1759599595.799,-298.340,-612.793,-819.336,-179.199,0.000
1759599595.803,-347.656,-558.594,-660.156,999.512,0.000
1759599595.807,999.512,956.055,755.371,-204.590,0.000
1759599595.811,999.512,999.512,898.926,-1000.000,0.000
1759599595.814,41.504,3.906,-279.297,-211.914,0.000
1759599595.818,-655.762,-1000.000,-973.633,999.512,0.000
1759599595.822,801.270,404.297,395.996,247.559,0.000
1759599595.826,999.512,999.512,999.512,-1000.000,0.000
1759599595.830,240.234,170.898,-5.859,-636.719,0.000
1759599595.834,-1000.000,-1000.000,-1000.000,999.512,0.000
1759599595.838,130.859,-163.086,-271.484,256.836,0.000
1759599595.842,999.512,999.512,999.512,-1000.000,0.000
1759599595.846,784.668,565.430,236.816,-1000.000,0.000
1759599595.850,-759.766,-1000.000,-1000.000,228.027,0.000
1759599595.853,-333.496,-294.922,-285.156,770.508,0.000
1759599595.857,999.512,999.512,986.328,-793.457,0.000
1759599595.861,999.512,999.512,620.605,-1000.000,0.000
1759599595.865,-126.465,-339.355,-632.812,-187.988,0.000
1759599595.869,-341.309,-588.379,-678.711,999.512,0.000
1759599595.873,961.426,875.488,699.219,-64.941,0.000
1759599595.877,999.512,999.512,999.512,-1000.000,0.000
1759599595.881,66.895,140.625,-148.926,-320.801,0.000
1759599595.885,-788.086,-1000.000,-1000.000,999.512,0.000
1759599595.889,647.461,176.270,202.637,247.559,0.000
1759599595.892,999.512,999.512,999.512,-1000.000,0.000
1759599595.896,345.215,238.281,55.664,-851.074,0.000
1759599595.900,-1000.000,-1000.000,-1000.000,783.203,0.000
1759599595.904,28.320,-280.273,-288.086,448.730,0.000
1759599595.908,999.512,999.512,999.512,-1000.000,0.000
1759599595.912,939.453,708.008,316.895,-1000.000,0.000
1759599595.916,-545.898,-943.848,-1000.000,77.637,0.000
1759599595.920,-350.586,-340.820,-358.398,937.500,0.000
1759599595.924,999.512,999.512,930.176,-554.199,0.000
1759599595.928,999.512,999.512,739.258,-1000.000,0.000
1759599595.932,-77.148,-243.164,-472.168,-193.848,0.000
1759599595.935,-506.348,-814.453,-825.195,999.512,0.000
1759599595.939,919.922,743.652,595.703,42.480,0.000
1759599595.943,999.512,999.512,981.934,-1000.000,0.000
1759599595.947,88.867,155.762,-117.676,-455.566,0.000
1759599595.951,-904.785,-1000.000,-1000.000,999.512,0.000
1759599595.955,485.352,38.574,-62.012,250.977,0.000
1759599595.959,999.512,999.512,999.512,-1000.000,0.000
1759599595.963,546.875,360.352,158.203,-1000.000,0.000
1759599595.967,-1000.000,-1000.000,-1000.000,528.320,0.000
1759599595.971,-199.219,-286.133,-292.480,603.516,0.000
1759599595.974,999.512,999.512,999.512,-949.707,0.000
1759599595.978,999.512,865.723,466.797,-1000.000,0.000
1759599595.982,-377.441,-750.000,-906.738,-49.316,0.000
1759599595.986,-353.516,-485.840,-591.797,999.512,0.000
1759599595.990,999.512,987.305,798.340,-369.141,0.000
1759599595.994,999.512,999.512,920.410,-1000.000,0.000
1759599595.998,31.250,-72.754,-285.156,-203.125,0.000
1759599596.002,-571.777,-943.359,-930.664,999.512,0.000
1759599596.006,859.375,541.504,470.703,152.832,0.000
1759599596.010,999.512,999.512,999.512,-1000.000,0.000
1759599596.013,136.719,163.086,-23.438,-606.934,0.000
1759599596.017,-1000.000,-1000.000,-1000.000,999.512,0.000
1759599596.021,281.250,-75.684,-239.258,262.695,0.000
1759599596.025,999.512,999.512,999.512,-1000.000,0.000
1759599596.029,695.312,475.098,230.957,-1000.000,0.000
1759599596.033,-867.676,-1000.000,-1000.000,335.449,0.000
1759599596.037,-322.266,-287.598,-280.762,697.754,0.000
1759599596.041,999.512,999.512,995.605,-884.277,0.000
1759599596.045,999.512,999.512,578.613,-1000.000,0.000
1759599596.049,-283.691,-518.555,-745.117,-177.734,0.000
1759599596.053,-343.262,-614.258,-683.105,999.512,0.000
1759599596.056,999.512,923.340,740.234,-168.945,0.000
1759599596.060,999.512,999.512,944.824,-1000.000,0.000
1759599596.064,48.340,74.219,-231.934,-269.531,0.000
1759599596.068,-680.664,-1000.000,-1000.000,999.512,0.000
1759599596.072,767.578,331.543,349.121,247.559,0.000
1759599596.076,999.512,999.512,999.512,-1000.000,0.000
1759599596.080,350.098,173.828,-2.441,-780.762,0.000
1759599596.084,-1000.000,-1000.000,-1000.000,872.559,0.000
1759599596.088,15.625,-209.961,-279.297,384.766,0.000
1759599596.092,999.512,999.512,999.512,-1000.000,0.000
1759599596.096,827.637,614.258,250.000,-1000.000,0.000
1759599596.099,-717.285,-1000.000,-1000.000,209.961,0.000
1759599596.103,-337.891,-294.922,-295.410,827.148,0.000
1759599596.107,999.512,999.512,970.703,-727.051,0.000
1759599596.111,999.512,999.512,676.270,-1000.000,0.000
1759599596.115,-183.105,-314.941,-571.289,-186.523,0.000
1759599596.119,-429.688,-717.773,-771.973,999.512,0.000
1759599596.123,973.633,854.492,645.996,-49.805,0.000
1759599596.127,999.512,999.512,959.961,-1000.000,0.000
1759599596.131,86.914,150.879,-153.320,-418.457,0.000
1759599596.135,-867.676,-1000.000,-1000.000,999.512,0.000
1759599596.139,539.062,115.723,96.191,259.766,0.000
1759599596.142,999.512,999.512,999.512,-1000.000,0.000
1759599596.146,449.219,287.109,122.559,-906.250,0.000
1759599596.150,-1000.000,-1000.000,-1000.000,707.520,0.000
1759599596.154,-92.285,-280.762,-299.316,498.535,0.000
1759599596.158,999.512,999.512,999.512,-1000.000,0.000
1759599596.162,948.242,797.852,417.969,-1000.000,0.000
1759599596.166,-552.246,-839.355,-1000.000,77.148,0.000
1759599596.170,-348.633,-407.227,-476.074,946.289,0.000
1759599596.174,999.512,999.512,875.488,-539.062,0.000
