timestamps,TP9,AF7,AF8,TP10,Right AUX
1759600985.580,107.422,13.672,-8.789,-1.465,0.000
1759600985.583,0.488,4.883,-1.953,-2.930,0.000
1759600985.587,-85.938,-7.812,4.395,-9.766,0.000
1759600985.591,-15.137,-3.418,-0.488,-1.953,0.000
1759600985.595,103.516,-2.930,-14.160,19.531,0.000
1759600985.599,41.504,-11.719,-10.254,22.461,0.000
1759600985.603,-81.543,-10.742,-0.488,-2.441,0.000
1759600985.607,-52.734,-0.977,0.977,-11.230,0.000
1759600985.611,75.684,-7.324,-22.461,10.742,0.000
1759600985.615,66.406,-4.883,-25.879,20.996,0.000
1759600985.619,-58.105,12.695,7.812,-3.906,0.000
1759600985.623,-73.242,1.953,0.977,-16.602,0.000
1759600985.626,39.551,-10.742,-14.160,0.000,0.000
1759600985.630,85.938,-13.672,-20.508,1.953,0.000
1759600985.634,-35.645,-8.789,-10.254,-4.883,0.000
1759600985.638,-85.449,0.977,-0.977,-0.488,0.000
1759600985.642,7.324,-5.371,-8.301,2.441,0.000
1759600985.646,88.867,-20.508,-15.137,0.000,0.000
1759600985.650,2.930,-1.465,-2.930,-7.324,0.000
1759600985.654,-83.496,4.883,-0.488,-16.113,0.000
1759600985.658,-38.086,-10.742,-27.344,-10.254,0.000
1759600985.662,73.730,-2.441,-27.344,-5.371,0.000
1759600985.665,15.137,3.906,-12.207,-22.949,0.000
1759600985.669,-98.633,0.000,-15.137,-26.855,0.000
1759600985.673,-73.242,-3.418,-16.602,-26.367,0.000
1759600985.677,47.852,0.977,-17.578,-18.555,0.000
1759600985.681,54.199,4.395,-11.719,-10.254,0.000
1759600985.685,-71.777,-8.789,-9.277,-14.648,0.000
1759600985.689,-85.938,-13.672,-10.742,-12.207,0.000
1759600985.693,23.438,-5.371,-13.184,-12.207,0.000
1759600985.697,68.848,-2.441,-15.625,-14.160,0.000
1759600985.701,-46.875,-13.184,-20.996,-12.695,0.000
1759600985.705,-99.121,-15.137,-24.414,-9.277,0.000
1759600985.708,-11.230,5.371,-5.859,-15.137,0.000
1759600985.712,87.891,6.348,-13.184,-14.160,0.000
1759600985.716,1.465,-1.465,-15.137,-15.625,0.000
1759600985.720,-92.773,-3.418,-2.930,-20.508,0.000
1759600985.724,-37.109,-0.977,-10.254,-15.137,0.000
1759600985.728,78.125,0.488,-23.926,-0.977,0.000
1759600985.732,41.992,2.441,-14.160,-1.465,0.000
1759600985.736,-69.336,0.977,-4.883,-9.277,0.000
1759600985.740,-56.641,4.883,-11.719,-6.836,0.000
1759600985.744,64.941,7.812,-19.531,-1.953,0.000
1759600985.748,83.008,-5.371,-32.227,1.953,0.000
1759600985.751,-42.969,-2.930,-5.859,-4.883,0.000
1759600985.755,-78.125,6.836,8.789,-17.090,0.000
1759600985.759,20.996,-2.930,-20.996,-13.672,0.000
1759600985.763,88.867,0.000,-21.973,-6.836,0.000
1759600985.767,-13.184,15.625,-2.930,-8.301,0.000
1759600985.771,-77.148,11.230,0.977,-13.672,0.000
1759600985.775,3.418,3.906,-9.766,-6.348,0.000
1759600985.779,97.656,-1.953,-15.625,2.930,0.000
1759600985.783,21.973,1.465,-1.953,0.488,0.000
1759600985.787,-79.102,-1.953,8.301,-6.348,0.000
1759600985.790,-41.992,-14.648,-2.930,-2.441,0.000
1759600985.794,80.566,-12.207,-13.672,10.254,0.000
1759600985.798,45.898,-2.930,3.906,-4.395,0.000
1759600985.802,-76.660,0.000,6.348,-19.043,0.000
1759600985.806,-63.965,-3.418,-3.418,-5.859,0.000
1759600985.810,54.688,3.418,3.418,14.648,0.000
1759600985.814,78.613,8.301,8.301,10.742,0.000
1759600985.818,-47.363,-6.348,2.441,-3.906,0.000
1759600985.822,-91.309,-12.207,2.441,-12.695,0.000
1759600985.826,8.301,-5.859,4.395,-8.789,0.000
1759600985.830,83.496,-4.395,-4.883,-3.418,0.000
1759600985.833,-12.207,-2.930,1.465,-0.977,0.000
1759600985.837,-77.637,-12.695,-10.742,6.348,0.000
1759600985.841,-6.348,-10.254,-14.648,9.766,0.000
1759600985.845,94.238,7.812,10.254,10.742,0.000
1759600985.849,10.254,-1.953,12.207,-10.254,0.000
1759600985.853,-111.328,-14.160,11.230,-33.691,0.000
1759600985.857,-76.172,-17.090,14.160,-30.273,0.000
1759600985.861,48.828,-15.137,12.695,-20.020,0.000
1759600985.865,41.992,-9.766,4.883,-13.184,0.000
1759600985.869,-68.359,-1.465,12.207,-3.906,0.000
1759600985.873,-82.520,-0.488,17.578,-8.789,0.000
1759600985.876,21.484,-4.395,2.930,-13.184,0.000
1759600985.880,75.684,-3.906,-17.090,0.488,0.000
1759600985.884,-39.062,-10.742,-2.930,-2.930,0.000
1759600985.888,-90.820,2.441,20.996,-11.719,0.000
1759600985.892,4.883,4.883,8.301,-2.930,0.000
1759600985.896,95.703,-7.324,-2.441,11.719,0.000
1759600985.900,1.465,6.348,8.301,12.695,0.000
1759600985.904,-87.891,16.602,16.602,-3.418,0.000
1759600985.908,-21.484,12.695,7.324,-2.441,0.000
1759600985.912,83.496,-0.977,-18.555,3.906,0.000
1759600985.915,20.020,-8.301,-16.113,-9.766,0.000
1759600985.919,-88.379,2.930,5.371,-17.090,0.000
1759600985.923,-68.848,2.441,-2.441,-14.648,0.000
1759600985.927,54.688,-4.883,-16.602,-5.859,0.000
1759600985.931,69.336,3.418,-3.906,3.906,0.000
1759600985.935,-53.223,-0.488,14.160,-5.371,0.000
1759600985.939,-77.637,-12.207,-2.930,-17.090,0.000
1759600985.943,25.391,-15.625,-23.926,-12.207,0.000
1759600985.947,71.777,-9.277,-16.113,-6.348,0.000
1759600985.951,-32.715,1.465,5.371,-7.812,0.000
1759600985.955,-80.566,1.953,0.000,-6.348,0.000
1759600985.958,-7.812,-8.789,-12.207,-4.883,0.000
1759600985.962,85.938,-10.742,-10.254,2.441,0.000
1759600985.966,8.789,-4.883,-9.766,-5.859,0.000
1759600985.970,-80.078,-6.348,-12.207,-14.648,0.000
1759600985.974,-33.691,-13.184,-18.555,-8.789,0.000
1759600985.978,80.566,-9.766,-20.508,0.488,0.000
1759600985.982,45.898,2.441,2.441,-1.465,0.000
1759600985.986,-78.125,-6.836,-2.441,-10.742,0.000
1759600985.990,-74.219,-18.555,-19.043,-11.719,0.000
1759600985.994,41.992,-9.277,-1.953,-12.207,0.000
1759600985.998,61.523,-5.859,-2.930,-7.324,0.000
1759600986.001,-62.988,-6.836,-6.836,-9.277,0.000
1759600986.005,-90.820,-8.301,-8.789,-8.301,0.000
1759600986.009,18.555,-9.277,-15.137,0.488,0.000
1759600986.013,94.727,-0.488,-9.766,18.066,0.000
1759600986.017,-13.672,3.418,2.441,14.648,0.000
1759600986.021,-82.031,0.977,0.000,-1.465,0.000
1759600986.025,-1.465,-0.977,-5.371,-1.953,0.000
1759600986.029,82.031,-15.137,-16.113,-5.371,0.000
1759600986.033,10.254,-15.625,-24.902,1.465,0.000
1759600986.037,-70.801,-3.418,-1.465,8.301,0.000
1759600986.040,-30.273,-7.812,8.301,4.395,0.000
1759600986.044,74.707,-11.230,-11.719,6.348,0.000
1759600986.048,47.363,-6.348,-8.301,7.324,0.000
1759600986.052,-57.129,1.953,11.230,13.672,0.000
1759600986.056,-55.664,-1.953,6.836,7.324,0.000
1759600986.060,63.477,-8.789,-8.301,10.254,0.000
1759600986.064,93.750,-9.277,-10.742,20.508,0.000
1759600986.068,-37.598,-6.348,-2.930,5.859,0.000
1759600986.072,-70.312,-4.395,1.465,2.930,0.000
1759600986.076,30.273,-16.113,-13.672,16.113,0.000
1759600986.080,100.586,-25.391,-24.902,19.043,0.000
1759600986.083,-0.977,-5.371,9.277,5.859,0.000
1759600986.087,-83.496,-6.348,9.766,-1.953,0.000
1759600986.091,-20.508,-20.996,-8.301,4.395,0.000
1759600986.095,84.961,-24.414,-12.207,8.789,0.000
1759600986.099,21.973,-13.672,-10.742,8.301,0.000
1759600986.103,-70.801,-9.277,2.930,11.230,0.000
1759600986.107,-33.203,-13.184,4.883,13.672,0.000
1759600986.111,86.426,-13.184,-8.789,18.555,0.000
1759600986.115,82.031,-16.113,-10.742,20.020,0.000
1759600986.119,-38.086,-13.184,-1.465,14.160,0.000
1759600986.123,-35.156,-9.277,-5.371,29.785,0.000
1759600986.126,80.566,0.488,-4.883,42.969,0.000
1759600986.130,106.934,-3.906,-3.418,15.137,0.000
1759600986.134,-15.137,-7.324,-7.324,2.930,0.000
1759600986.138,-63.965,-1.465,-10.254,4.883,0.000
1759600986.142,20.996,-10.254,-21.484,7.324,0.000
1759600986.146,109.863,-14.160,-27.832,19.043,0.000
1759600986.150,23.438,-7.324,-27.344,13.672,0.000
1759600986.154,-61.035,1.465,-18.066,3.906,0.000
1759600986.158,-1.465,6.348,-8.301,12.695,0.000
1759600986.162,104.004,2.930,-26.367,17.090,0.000
1759600986.165,46.875,-3.418,-37.109,10.254,0.000
1759600986.169,-68.848,-2.930,-22.949,10.742,0.000
1759600986.173,-52.734,17.090,-0.977,2.930,0.000
1759600986.177,57.129,4.395,-11.230,3.418,0.000
1759600986.181,63.477,-24.414,-21.484,22.461,0.000
1759600986.185,-41.016,-19.531,-12.207,29.297,0.000
1759600986.189,-51.270,6.348,-9.766,8.301,0.000
1759600986.193,34.180,15.625,-27.832,-16.113,0.000
1759600986.197,66.895,10.254,-31.250,-28.809,0.000
1759600986.201,-39.551,11.719,-22.949,-33.691,0.000
1759600986.205,-105.957,18.555,-33.691,-55.664,0.000
1759600986.208,-32.227,22.461,-56.641,-73.242,0.000
1759600986.212,59.570,19.043,-80.566,-67.871,0.000
1759600986.216,-39.062,35.645,-66.406,-89.844,0.000
1759600986.220,-137.695,42.480,-51.270,-117.676,0.000
1759600986.224,-94.238,20.508,-78.613,-120.117,0.000
1759600986.228,22.461,25.879,-85.938,-116.699,0.000
1759600986.232,-12.695,36.133,-79.102,-125.977,0.000
1759600986.236,-135.254,25.391,-77.148,-130.371,0.000
1759600986.240,-111.816,19.531,-83.496,-113.770,0.000
1759600986.244,20.020,19.531,-93.750,-97.168,0.000
1759600986.248,32.715,23.438,-81.055,-87.402,0.000
1759600986.251,-83.008,23.926,-68.359,-81.055,0.000
1759600986.255,-92.285,21.973,-74.219,-67.383,0.000
1759600986.259,9.277,21.484,-76.660,-54.199,0.000
1759600986.263,62.988,20.996,-59.570,-59.570,0.000
1759600986.267,-40.039,20.996,-46.875,-62.988,0.000
1759600986.271,-95.215,19.531,-38.574,-57.617,0.000
1759600986.275,-32.227,8.789,-55.664,-58.105,0.000
1759600986.279,67.383,10.742,-61.035,-49.316,0.000
1759600986.283,-1.465,22.949,-44.434,-47.852,0.000
1759600986.287,-105.957,13.184,-49.316,-48.340,0.000
1759600986.290,-59.082,2.441,-48.340,-38.086,0.000
1759600986.294,69.824,7.812,-38.086,-32.227,0.000
1759600986.298,51.270,3.906,-37.598,-31.738,0.000
1759600986.302,-68.848,-0.977,-41.504,-38.086,0.000
1759600986.306,-73.242,2.441,-33.691,-46.387,0.000
1759600986.310,37.109,3.418,-24.902,-36.621,0.000
1759600986.314,74.219,12.695,-27.344,-16.602,0.000
1759600986.318,-43.457,10.742,-27.832,-16.113,0.000
1759600986.322,-90.332,11.230,-14.648,-21.973,0.000
1759600986.326,5.859,10.254,-15.625,-20.020,0.000
1759600986.330,82.520,-7.324,-29.785,-14.648,0.000
1759600986.333,-26.367,-13.672,-32.715,-26.367,0.000
1759600986.337,-110.840,-11.230,-24.414,-34.668,0.000
1759600986.341,-37.598,-3.906,-15.137,-19.531,0.000
1759600986.345,74.707,-4.883,-24.414,-10.254,0.000
1759600986.349,4.395,-12.207,-30.762,-21.484,0.000
1759600986.353,-98.145,-1.953,-16.602,-21.973,0.000
1759600986.357,-50.293,11.719,-10.742,-12.207,0.000
1759600986.361,69.336,-3.906,-32.715,-5.859,0.000
1759600986.365,42.969,-7.324,-34.668,-3.418,0.000
1759600986.369,-78.613,9.277,-3.418,-17.578,0.000
1759600986.373,-83.008,1.953,-8.789,-18.555,0.000
1759600986.376,35.645,-6.836,-12.695,2.930,0.000
1759600986.380,83.496,-1.953,-6.836,6.836,0.000
1759600986.384,-49.805,0.000,-8.301,-18.555,0.000
1759600986.388,-102.539,-5.371,-5.859,-20.996,0.000
1759600986.392,-5.859,-15.137,-20.020,-14.648,0.000
1759600986.396,81.543,-11.719,-26.367,-4.395,0.000
1759600986.400,-11.230,2.441,-4.883,-7.324,0.000
1759600986.404,-107.422,-0.977,0.488,-22.949,0.000
1759600986.408,-37.598,-11.230,-19.043,-5.859,0.000
1759600986.412,78.613,-14.160,-20.996,-2.441,0.000
1759600986.415,15.625,2.930,-3.418,-16.113,0.000
1759600986.419,-95.215,7.812,-4.395,-20.508,0.000
1759600986.423,-76.172,-8.301,-13.672,-27.344,0.000
1759600986.427,41.992,-10.742,-10.254,-18.555,0.000
1759600986.431,37.109,-13.184,-9.277,-20.020,0.000
1759600986.435,-79.102,-9.766,-2.441,-22.949,0.000
1759600986.439,-77.148,-0.977,-2.930,-17.090,0.000
1759600986.443,26.367,-8.789,-23.438,-16.602,0.000
1759600986.447,67.383,-2.441,-20.020,-12.207,0.000
1759600986.451,-39.062,3.418,-13.184,-11.719,0.000
1759600986.455,-93.750,-14.160,-20.020,-16.602,0.000
1759600986.458,-16.113,-12.207,-5.371,-21.484,0.000
1759600986.462,82.520,2.441,-6.348,-18.066,0.000
1759600986.466,-1.953,-3.906,-14.648,-24.902,0.000
1759600986.470,-100.098,-16.602,-11.719,-32.227,0.000
1759600986.474,-44.922,-9.766,-7.324,-16.602,0.000
1759600986.478,72.266,-6.836,-10.254,-0.977,0.000
1759600986.482,35.645,-2.930,-8.301,-7.812,0.000
1759600986.486,-78.125,-1.465,-3.906,-17.578,0.000
1759600986.490,-66.895,-11.230,-11.230,-19.531,0.000
1759600986.494,58.594,-12.207,-18.066,-5.859,0.000
1759600986.498,77.148,-8.789,-23.438,15.625,0.000
1759600986.501,-39.551,5.859,-1.953,7.812,0.000
1759600986.505,-76.172,5.859,9.766,-18.066,0.000
1759600986.509,21.484,-2.930,-13.672,-14.648,0.000
1759600986.513,90.332,1.465,-19.531,-3.906,0.000
1759600986.517,-16.602,8.789,4.395,-6.836,0.000
1759600986.521,-79.102,5.371,5.859,-15.137,0.000
1759600986.525,-3.906,-7.324,-19.531,-15.137,0.000
1759600986.529,89.355,-14.648,-29.297,-9.766,0.000
1759600986.533,14.648,-0.977,-8.301,-7.812,0.000
1759600986.537,-79.590,4.395,-2.930,-10.254,0.000
1759600986.540,-39.551,-15.137,-21.973,-7.324,0.000
1759600986.544,80.566,-14.160,-29.785,6.836,0.000
1759600986.548,57.617,-0.977,-2.441,7.812,0.000
1759600986.552,-60.547,-3.418,8.301,-0.488,0.000
1759600986.556,-64.453,-8.301,-7.324,-4.883,0.000
1759600986.560,59.570,-3.906,-9.766,6.348,0.000
1759600986.564,85.449,-6.836,-10.742,2.930,0.000
1759600986.568,-49.316,-11.230,-28.809,-12.695,0.000
1759600986.572,-82.520,-9.766,-25.879,-1.465,0.000
1759600986.576,28.320,-3.906,-8.789,17.578,0.000
1759600986.580,96.191,-4.883,-16.602,9.277,0.000
1759600986.583,-20.996,-19.043,-19.043,-9.766,0.000
1759600986.587,-93.262,-29.785,-29.297,-3.418,0.000
1759600986.591,-18.555,-20.508,-24.414,1.953,0.000
1759600986.595,80.078,-9.277,-4.395,-0.488,0.000
1759600986.599,9.766,-16.602,-13.672,-6.348,0.000
1759600986.603,-92.773,-8.789,-14.648,-11.719,0.000
1759600986.607,-60.547,0.977,-8.789,-5.859,0.000
1759600986.611,48.340,-6.836,-27.344,-11.230,0.000
1759600986.615,35.156,-14.648,-32.227,-11.719,0.000
1759600986.619,-76.172,-7.324,-11.230,-6.348,0.000
1759600986.623,-82.520,-5.859,-9.277,-9.766,0.000
1759600986.626,31.250,-8.301,-18.066,-0.977,0.000
1759600986.630,75.195,-12.207,-28.320,14.648,0.000
1759600986.634,-37.109,-12.207,-20.020,10.254,0.000
1759600986.638,-93.262,-7.324,0.977,-8.789,0.000
1759600986.642,-6.348,-4.395,-9.766,-5.859,0.000
1759600986.646,83.008,-2.930,-18.066,9.766,0.000
1759600986.650,-16.602,-2.441,-5.859,3.418,0.000
1759600986.654,-106.934,-7.812,-0.488,-14.160,0.000
1759600986.658,-43.945,-9.766,-8.301,-11.719,0.000
1759600986.662,71.777,-12.695,-20.508,0.000,0.000
1759600986.665,21.973,-9.277,-12.207,-1.465,0.000
1759600986.669,-80.566,0.488,1.465,-9.766,0.000
1759600986.673,-52.734,-0.488,-5.859,-4.883,0.000
1759600986.677,63.965,-7.324,-22.949,5.859,0.000
1759600986.681,61.523,-4.883,-18.066,-0.977,0.000
1759600986.685,-51.270,4.395,-0.488,-10.254,0.000
1759600986.689,-39.062,0.977,-7.324,12.695,0.000
1759600986.693,67.871,-16.602,-20.508,36.133,0.000
1759600986.697,88.867,-11.719,4.883,20.508,0.000
1759600986.701,-30.762,-6.836,20.020,0.488,0.000
1759600986.705,-89.355,-24.414,6.836,-4.883,0.000
1759600986.708,-4.883,-22.461,13.672,10.254,0.000
1759600986.712,81.055,-23.926,22.949,23.926,0.000
1759600986.716,-2.441,-29.785,33.691,17.578,0.000
1759600986.720,-83.496,-30.762,39.062,16.602,0.000
1759600986.724,-25.879,-36.133,36.621,27.344,0.000
1759600986.728,93.750,-34.180,42.480,42.969,0.000
1759600986.732,53.223,-32.227,52.246,45.410,0.000
1759600986.736,-52.246,-40.527,37.598,40.527,0.000
1759600986.740,-39.062,-36.621,26.855,36.133,0.000
1759600986.744,75.684,-17.578,35.156,34.180,0.000
1759600986.747,93.750,-8.789,34.180,39.062,0.000
1759600986.751,-28.320,-15.137,34.668,40.039,0.000
1759600986.755,-48.340,-15.625,34.668,45.898,0.000
1759600986.759,62.012,-8.301,31.738,56.152,0.000
1759600986.763,112.305,-17.578,22.461,55.176,0.000
1759600986.767,-7.324,-27.344,16.602,33.691,0.000
1759600986.771,-70.312,-26.367,18.066,24.902,0.000
1759600986.775,4.395,-19.043,20.996,30.762,0.000
1759600986.779,102.539,-23.438,9.277,25.879,0.000
1759600986.783,34.668,-24.902,2.441,29.297,0.000
1759600986.787,-60.059,-14.160,19.531,30.273,0.000
1759600986.790,-21.973,-13.184,26.855,14.648,0.000
1759600986.794,96.680,-13.672,10.742,22.461,0.000
1759600986.798,67.383,-6.348,14.160,23.438,0.000
1759600986.802,-44.922,1.953,33.691,20.020,0.000
1759600986.806,-36.621,0.977,30.762,25.391,0.000
1759600986.810,72.754,-6.836,10.254,21.973,0.000
1759600986.814,92.773,-4.395,0.488,15.625,0.000
1759600986.818,-29.785,-10.742,12.695,11.719,0.000
1759600986.822,-53.223,-9.277,27.344,15.137,0.000
1759600986.826,49.805,-6.836,16.602,26.855,0.000
1759600986.830,112.305,-16.602,0.488,30.762,0.000
1759600986.833,0.000,-4.395,24.414,7.812,0.000
1759600986.837,-74.219,3.906,26.367,-1.953,0.000
1759600986.841,-3.418,0.000,2.930,6.836,0.000
1759600986.845,105.469,6.348,0.000,23.926,0.000
1759600986.849,32.715,-1.465,5.371,12.695,0.000
1759600986.853,-79.590,-9.766,8.789,-15.137,0.000
1759600986.857,-32.715,2.441,13.184,-8.789,0.000
1759600986.861,90.820,1.953,5.371,8.301,0.000
1759600986.865,60.547,-14.160,-5.371,4.883,0.000
1759600986.869,-67.871,-12.695,-4.883,-9.277,0.000
1759600986.873,-67.871,-6.348,-13.672,-7.812,0.000
1759600986.876,40.039,-6.836,-7.324,4.883,0.000
1759600986.880,76.172,-3.906,4.395,2.441,0.000
1759600986.884,-33.691,-1.953,0.488,-0.977,0.000
1759600986.888,-71.777,2.441,5.371,4.883,0.000
1759600986.892,20.508,8.301,1.953,10.254,0.000
1759600986.896,100.586,5.859,-10.254,19.531,0.000
1759600986.900,6.348,-6.348,-12.695,15.137,0.000
1759600986.904,-82.031,-6.836,-1.953,9.277,0.000
1759600986.908,-27.344,-8.301,4.395,4.883,0.000
1759600986.912,86.426,-12.207,-7.812,16.113,0.000
1759600986.915,37.598,-4.395,-13.184,22.461,0.000
1759600986.919,-72.266,-2.930,-6.836,13.184,0.000
1759600986.923,-49.316,-1.953,5.859,4.395,0.000
1759600986.927,76.172,-7.324,-0.977,15.137,0.000
1759600986.931,69.336,-18.066,-6.348,16.602,0.000
1759600986.935,-47.363,-2.441,12.695,8.789,0.000
1759600986.939,-52.246,6.348,19.043,13.672,0.000
1759600986.943,46.387,-14.648,-9.766,14.648,0.000
1759600986.947,91.309,-15.625,-19.531,13.184,0.000
1759600986.951,-23.438,-0.977,0.977,3.906,0.000
1759600986.955,-82.031,3.418,2.441,-3.418,0.000
1759600986.958,7.324,-8.789,-5.859,2.441,0.000
1759600986.962,108.887,-15.625,-19.043,23.438,0.000
1759600986.966,20.020,-3.906,-6.836,17.090,0.000
1759600986.970,-69.824,6.836,15.137,-1.953,0.000
1759600986.974,-15.137,-4.395,-6.348,-4.395,0.000
1759600986.978,88.379,-12.207,-25.879,3.418,0.000
1759600986.982,49.805,-9.766,-13.184,4.883,0.000
1759600986.986,-57.129,-6.348,0.000,-2.930,0.000
1759600986.990,-55.176,-9.766,-13.184,-4.883,0.000
1759600986.994,55.176,-13.184,-17.578,5.859,0.000
1759600986.997,62.500,-11.719,-9.277,4.395,0.000
1759600987.001,-57.129,-5.859,0.000,-9.766,0.000
1759600987.005,-75.684,-6.348,-7.812,-0.488,0.000
1759600987.009,24.902,-4.395,-17.090,12.695,0.000
1759600987.013,90.332,9.277,2.930,11.719,0.000
1759600987.017,-14.160,10.254,13.672,13.184,0.000
1759600987.021,-75.684,1.953,4.395,11.719,0.000
1759600987.025,1.953,-0.977,-1.465,12.695,0.000
1759600987.029,90.820,4.883,-1.465,14.648,0.000
1759600987.033,20.996,4.883,-0.977,9.277,0.000
1759600987.037,-68.848,-2.930,-6.836,-1.953,0.000
1759600987.040,-29.785,-9.277,-12.695,-4.883,0.000
1759600987.044,78.613,-12.695,-10.742,5.371,0.000
1759600987.048,42.480,-2.441,-2.930,0.488,0.000
1759600987.052,-73.242,-2.441,-6.348,-10.254,0.000
1759600987.056,-62.500,-6.836,-7.324,-11.230,0.000
1759600987.060,53.711,1.953,-3.418,-9.277,0.000
1759600987.064,83.496,-2.441,-10.742,-1.465,0.000
1759600987.068,-32.227,-11.230,-13.184,4.883,0.000
1759600987.072,-75.195,-1.953,-0.977,-3.418,0.000
1759600987.076,18.066,-1.465,0.488,-7.324,0.000
1759600987.080,98.633,-6.836,-13.184,0.488,0.000
1759600987.083,-2.930,1.465,-8.789,-0.977,0.000
1759600987.087,-77.148,7.324,8.789,-1.953,0.000
1759600987.091,-11.230,-2.441,-3.418,-2.441,0.000
1759600987.095,74.219,-18.066,-34.180,-4.883,0.000
1759600987.099,-0.488,-17.090,-29.785,-17.090,0.000
1759600987.103,-88.379,0.000,-9.277,-23.926,0.000
1759600987.107,-42.969,2.930,1.953,-16.602,0.000
1759600987.111,70.801,-13.184,-19.043,-3.418,0.000
1759600987.115,46.875,-10.742,-9.766,-3.418,0.000
1759600987.119,-82.031,9.766,37.598,-22.461,0.000
1759600987.122,-89.844,-0.488,28.320,-27.832,0.000
1759600987.126,24.414,-17.090,13.672,-15.625,0.000
1759600987.130,55.664,0.488,16.113,-18.555,0.000
1759600987.134,-78.125,28.320,34.180,-54.688,0.000
1759600987.138,-137.207,11.719,59.570,-72.266,0.000
1759600987.142,-57.617,14.160,38.574,-70.801,0.000
1759600987.146,15.137,19.043,24.414,-74.219,0.000
1759600987.150,-91.797,22.461,53.223,-94.727,0.000
1759600987.154,-195.312,46.387,73.730,-122.559,0.000
1759600987.158,-143.066,42.969,67.383,-120.117,0.000
1759600987.162,-44.434,53.223,94.238,-125.977,0.000
1759600987.165,-128.906,51.758,97.168,-168.457,0.000
1759600987.169,-250.488,42.480,62.500,-187.012,0.000
1759600987.173,-232.422,43.457,80.566,-189.941,0.000
1759600987.177,-128.418,58.105,103.516,-198.730,0.000
1759600987.181,-154.785,54.688,96.191,-214.844,0.000
1759600987.185,-292.969,54.199,80.566,-239.258,0.000
1759600987.189,-314.941,51.758,73.242,-245.605,0.000
1759600987.193,-196.289,45.410,63.965,-226.562,0.000
1759600987.197,-146.973,57.129,69.824,-224.609,0.000
1759600987.201,-259.277,59.570,62.988,-227.051,0.000
1759600987.205,-281.738,55.664,57.617,-197.754,0.000
1759600987.208,-192.383,60.547,70.801,-191.895,0.000
1759600987.212,-98.145,53.711,54.688,-186.523,0.000
1759600987.216,-150.391,45.898,47.363,-164.062,0.000
1759600987.220,-219.727,43.945,52.246,-150.879,0.000
1759600987.224,-159.180,41.016,44.434,-136.230,0.000
1759600987.228,-17.578,36.133,41.504,-95.215,0.000
1759600987.232,-49.316,28.320,39.062,-84.961,0.000
1759600987.236,-160.645,10.254,30.762,-96.680,0.000
1759600987.240,-123.535,-12.695,8.789,-71.289,0.000
1759600987.244,23.926,-19.043,-6.348,-38.086,0.000
1759600987.247,45.410,-15.625,-16.113,-11.719,0.000
1759600987.251,-85.449,-16.113,-18.066,-23.438,0.000
1759600987.255,-93.750,-8.789,-7.812,-27.832,0.000
1759600987.259,35.156,-9.766,-25.391,2.441,0.000
1759600987.263,98.633,-20.996,-38.574,16.602,0.000
1759600987.267,-8.301,-25.879,-31.250,11.230,0.000
1759600987.271,-52.734,-24.414,-29.785,23.438,0.000
1759600987.275,36.133,-33.203,-47.852,42.969,0.000
1759600987.279,128.906,-36.621,-57.617,50.781,0.000
1759600987.283,53.223,-28.809,-48.340,50.293,0.000
1759600987.287,-36.621,-31.250,-56.641,37.109,0.000
1759600987.290,14.160,-35.645,-71.289,43.457,0.000
1759600987.294,133.301,-41.992,-75.684,63.477,0.000
1759600987.298,102.539,-36.621,-55.176,57.617,0.000
1759600987.302,-10.254,-26.367,-44.922,41.504,0.000
1759600987.306,4.395,-23.926,-51.758,51.758,0.000
1759600987.310,124.023,-28.320,-55.176,75.195,0.000
1759600987.314,139.648,-31.250,-52.734,69.824,0.000
1759600987.318,25.879,-31.738,-50.781,58.594,0.000
1759600987.322,-2.930,-26.855,-44.922,64.453,0.000
1759600987.326,80.566,-32.227,-52.246,68.359,0.000
1759600987.330,159.180,-32.227,-50.293,86.914,0.000
1759600987.333,62.988,-20.996,-34.668,82.520,0.000
1759600987.337,-23.926,-30.762,-56.152,65.918,0.000
1759600987.341,34.668,-30.762,-60.547,61.035,0.000
1759600987.345,138.184,-16.602,-39.062,62.012,0.000
1759600987.349,71.289,-11.230,-31.738,56.152,0.000
1759600987.353,-29.785,-18.555,-40.039,44.922,0.000
1759600987.357,13.672,-13.672,-44.434,48.340,0.000
1759600987.361,123.047,-14.648,-27.832,43.945,0.000
1759600987.365,104.004,-14.160,-22.949,48.828,0.000
1759600987.369,-23.438,-7.324,-27.832,31.738,0.000
1759600987.372,-58.594,-10.742,-10.742,-1.465,0.000
1759600987.376,60.547,1.465,2.930,12.695,0.000
1759600987.380,86.914,7.812,5.371,12.207,0.000
1759600987.384,-71.777,-5.859,0.000,-22.949,0.000
1759600987.388,-110.352,1.953,23.926,-32.227,0.000
1759600987.392,-22.461,22.949,32.227,-45.410,0.000
1759600987.396,15.137,32.227,7.812,-84.473,0.000
1759600987.400,-120.605,41.504,20.020,-128.418,0.000
1759600987.404,-217.285,45.898,38.574,-154.297,0.000
1759600987.408,-171.387,56.641,29.297,-177.246,0.000
1759600987.412,-73.730,72.754,4.395,-179.688,0.000
1759600987.415,-135.254,82.031,14.648,-187.500,0.000
1759600987.419,-254.395,93.262,14.160,-211.914,0.000
1759600987.423,-235.840,95.215,-11.719,-216.797,0.000
1759600987.427,-110.840,90.332,-42.480,-203.125,0.000
1759600987.431,-103.027,97.656,-49.316,-198.730,0.000
1759600987.435,-215.820,105.957,-34.180,-203.125,0.000
1759600987.439,-218.750,89.355,-54.199,-196.777,0.000
1759600987.443,-91.797,69.336,-74.707,-166.504,0.000
1759600987.447,-33.691,80.078,-52.734,-145.020,0.000
1759600987.451,-143.555,73.730,-45.898,-151.855,0.000
1759600987.455,-180.176,51.758,-66.406,-137.207,0.000
1759600987.458,-73.242,37.598,-78.125,-95.215,0.000
1759600987.462,25.879,30.762,-70.801,-79.590,0.000
1759600987.466,-57.129,32.715,-65.430,-85.938,0.000
1759600987.470,-127.441,22.949,-67.871,-63.477,0.000
1759600987.474,-51.270,-2.930,-72.266,-27.832,0.000
1759600987.478,71.289,-15.137,-81.543,-15.137,0.000
1759600987.482,35.156,-8.789,-76.172,-13.184,0.000
1759600987.486,-56.152,-20.508,-78.125,4.883,0.000
1759600987.490,-25.879,-34.668,-92.773,21.973,0.000
1759600987.494,100.098,-20.020,-73.730,35.645,0.000
1759600987.497,116.699,-23.438,-60.059,41.016,0.000
1759600987.501,-1.465,-33.203,-62.012,36.133,0.000
1759600987.505,-25.391,-39.062,-64.453,40.039,0.000
1759600987.509,78.125,-42.969,-66.406,48.828,0.000
1759600987.513,145.508,-41.992,-66.895,61.523,0.000
1759600987.517,42.480,-42.969,-62.988,60.059,0.000
1759600987.521,-8.301,-39.551,-58.594,65.918,0.000
1759600987.525,78.613,-34.668,-58.594,76.172,0.000
1759600987.529,164.551,-35.156,-63.477,78.613,0.000
1759600987.533,85.449,-47.852,-72.266,77.148,0.000
1759600987.537,-0.488,-39.551,-54.199,71.289,0.000
1759600987.540,50.293,-24.902,-37.598,71.777,0.000
1759600987.544,160.645,-42.480,-54.199,76.660,0.000
1759600987.548,121.094,-46.875,-52.246,75.195,0.000
1759600987.552,1.953,-34.668,-39.551,60.059,0.000
1759600987.556,8.301,-42.480,-42.480,55.664,0.000
1759600987.560,130.859,-41.992,-54.199,74.219,0.000
1759600987.564,148.926,-33.691,-51.270,76.172,0.000
1759600987.568,14.648,-40.039,-40.527,62.988,0.000
1759600987.572,-12.207,-27.344,-30.762,61.523,0.000
1759600987.576,92.773,-23.926,-45.898,70.312,0.000
1759600987.580,158.203,-33.203,-52.246,74.219,0.000
1759600987.583,58.594,-20.020,-16.113,59.570,0.000
1759600987.587,-8.789,-18.555,-12.695,52.734,0.000
1759600987.591,54.688,-30.762,-41.504,59.082,0.000
1759600987.595,158.691,-26.855,-41.504,71.289,0.000
1759600987.599,90.820,-18.066,-32.227,57.617,0.000
1759600987.603,-13.184,-30.273,-41.016,37.598,0.000
1759600987.607,20.020,-30.762,-41.016,33.691,0.000
1759600987.611,124.512,-28.320,-45.898,39.551,0.000
1759600987.615,103.027,-26.367,-44.922,41.504,0.000
1759600987.619,-13.672,-20.996,-35.156,29.297,0.000
1759600987.622,-12.695,-27.344,-40.039,37.598,0.000
1759600987.626,100.586,-30.273,-37.598,49.316,0.000
1759600987.630,117.676,-26.855,-28.809,37.598,0.000
1759600987.634,-1.465,-22.461,-26.855,37.598,0.000
1759600987.638,-40.527,-26.367,-31.250,29.785,0.000
1759600987.642,55.176,-21.973,-35.156,30.273,0.000
1759600987.646,131.348,-14.160,-34.180,41.992,0.000
1759600987.650,39.062,-17.578,-30.273,41.504,0.000
1759600987.654,-34.668,-16.602,-24.902,32.227,0.000
1759600987.658,24.902,-8.301,-23.438,35.156,0.000
1759600987.662,130.371,-18.066,-41.016,34.180,0.000
1759600987.665,72.266,-22.949,-42.969,36.133,0.000
1759600987.669,-35.645,-18.555,-30.273,43.945,0.000
1759600987.673,-23.438,-25.391,-24.902,28.320,0.000
1759600987.677,93.262,-22.949,-25.391,28.809,0.000
1759600987.681,92.285,-20.508,-25.391,32.715,0.000
1759600987.685,-29.297,-20.996,-17.090,22.461,0.000
1759600987.689,-47.852,-20.508,-15.625,18.066,0.000
1759600987.693,56.641,-25.391,-35.645,20.508,0.000
1759600987.697,100.586,-19.043,-41.016,20.508,0.000
1759600987.701,-14.160,-12.695,-15.625,15.625,0.000
1759600987.705,-54.688,-8.789,-3.906,20.508,0.000
1759600987.708,33.691,-11.719,-15.137,28.809,0.000
1759600987.712,112.305,-33.691,-43.457,28.809,0.000
1759600987.716,21.484,-27.832,-28.809,25.391,0.000
1759600987.720,-64.453,-5.859,2.930,16.113,0.000
1759600987.724,-3.906,-5.859,-5.859,22.461,0.000
1759600987.728,109.375,-14.160,-26.367,30.273,0.000
1759600987.732,53.223,-17.578,-24.414,15.625,0.000
1759600987.736,-60.059,-8.789,-9.766,8.301,0.000
1759600987.740,-30.762,-10.742,-17.578,19.043,0.000
1759600987.744,87.891,-20.020,-26.367,27.344,0.000
1759600987.747,83.496,-10.742,-16.113,20.020,0.000
1759600987.751,-50.781,-4.395,-14.160,-5.859,0.000
1759600987.755,-73.242,-12.695,-35.156,-7.324,0.000
1759600987.759,36.621,-22.949,-46.875,11.230,0.000
1759600987.763,99.121,-7.812,-25.879,15.137,0.000
1759600987.767,-7.812,10.742,-9.766,8.301,0.000
1759600987.771,-65.918,-4.395,-15.625,4.883,0.000
1759600987.775,19.043,-6.348,-14.648,17.090,0.000
1759600987.779,110.352,1.953,-16.602,21.973,0.000
1759600987.783,27.832,-2.441,-15.137,14.648,0.000
1759600987.787,-64.453,-7.812,-20.020,2.441,0.000
1759600987.790,-8.301,-2.930,-22.949,11.719,0.000
1759600987.794,99.609,-4.395,-22.949,19.531,0.000
1759600987.798,51.270,-7.812,-27.832,5.859,0.000
1759600987.802,-60.547,1.953,-20.508,8.789,0.000
1759600987.806,-53.223,-0.488,-15.625,6.836,0.000
1759600987.810,58.105,-2.930,-12.695,9.277,0.000
1759600987.814,83.008,0.488,-15.625,10.742,0.000
1759600987.818,-28.809,-4.883,-24.414,11.230,0.000
1759600987.822,-65.918,-8.789,-15.137,10.742,0.000
1759600987.826,27.832,-3.906,-12.207,1.953,0.000
1759600987.830,98.145,-2.930,-25.879,7.812,0.000
1759600987.833,-2.930,3.418,-18.555,3.906,0.000
1759600987.837,-69.336,1.465,-8.789,-5.371,0.000
1759600987.841,-0.977,-17.578,-22.949,-6.836,0.000
1759600987.845,100.586,-20.508,-41.992,5.371,0.000
1759600987.849,30.762,-10.254,-34.180,9.766,0.000
1759600987.853,-69.336,0.488,-10.254,1.465,0.000
1759600987.857,-29.785,2.930,-4.883,-4.395,0.000
1759600987.861,92.285,-3.418,-24.902,6.836,0.000
1759600987.865,79.590,-2.441,-20.996,22.949,0.000
1759600987.869,-51.270,0.977,3.418,-0.977,0.000
1759600987.872,-72.754,-17.090,-14.160,-23.926,0.000
1759600987.876,36.621,-23.926,-36.133,-11.719,0.000
1759600987.880,61.523,-16.113,-37.598,-8.301,0.000
1759600987.884,-51.758,-6.348,-17.090,-11.719,0.000
1759600987.888,-90.820,-10.742,-9.766,-9.766,0.000
1759600987.892,2.441,-19.043,-22.949,-4.395,0.000
1759600987.896,87.891,-16.113,-21.484,5.859,0.000
1759600987.900,-9.766,-17.090,-6.836,-1.953,0.000
1759600987.904,-74.219,-3.418,9.766,1.465,0.000
1759600987.908,-5.371,-7.324,-9.277,19.531,0.000
1759600987.912,86.914,-18.066,-22.949,9.277,0.000
1759600987.915,17.578,-13.672,-7.812,-13.672,0.000
1759600987.919,-89.355,-9.277,-11.719,-14.648,0.000
1759600987.923,-52.246,-5.371,-13.672,-10.254,0.000
1759600987.927,71.289,2.930,-12.207,3.906,0.000
1759600987.931,60.547,-1.953,-10.254,2.930,0.000
1759600987.935,-60.547,-9.766,-14.160,-3.906,0.000
1759600987.939,-73.730,-12.695,-22.461,-6.348,0.000
1759600987.943,40.527,-1.953,-16.602,6.836,0.000
1759600987.947,88.379,2.441,-4.883,21.973,0.000
1759600987.951,-29.785,-4.883,-11.719,3.418,0.000
1759600987.955,-88.379,-12.695,-24.902,-3.906,0.000
1759600987.958,-13.672,-12.207,-11.719,-6.836,0.000
1759600987.962,81.055,-6.836,-12.207,-0.977,0.000
1759600987.966,1.465,-11.719,-11.719,-4.395,0.000
1759600987.970,-83.496,-17.578,-3.906,-18.555,0.000
1759600987.974,-22.461,-6.836,-7.812,-12.695,0.000
1759600987.978,93.262,0.488,-13.184,7.324,0.000
1759600987.982,41.504,1.953,-3.906,3.906,0.000
1759600987.986,-64.941,0.488,9.277,-9.766,0.000
1759600987.990,-44.434,-3.418,-5.859,-9.277,0.000
1759600987.994,72.266,0.488,-15.625,2.930,0.000
1759600987.997,79.102,-6.348,-17.090,11.230,0.000
1759600988.001,-46.875,-8.301,-7.324,-1.953,0.000
1759600988.005,-65.918,-7.324,3.418,-12.207,0.000
1759600988.009,36.133,-12.695,-15.625,-3.906,0.000
1759600988.013,90.332,-13.672,-23.438,1.465,0.000
1759600988.017,-15.137,-11.230,-9.277,-6.836,0.000
1759600988.021,-74.219,-1.953,0.977,-12.207,0.000
1759600988.025,0.977,-10.254,-13.184,-4.395,0.000
1759600988.029,96.191,-14.160,-18.555,7.324,0.000
1759600988.033,12.695,-5.859,-8.301,2.930,0.000
1759600988.037,-85.938,-7.812,-8.301,-5.859,0.000
1759600988.040,-38.086,-18.555,-20.508,4.883,0.000
1759600988.044,79.102,-19.531,-29.297,22.461,0.000
1759600988.048,42.480,-2.441,-13.184,2.930,0.000
1759600988.052,-69.824,0.977,-1.465,-12.207,0.000
1759600988.056,-53.223,0.488,-15.137,4.883,0.000
1759600988.060,59.570,3.418,-23.438,15.625,0.000
1759600988.064,69.336,4.395,-9.766,0.977,0.000
1759600988.068,-43.945,3.418,-1.465,-5.859,0.000
1759600988.072,-73.730,-2.930,-2.441,-11.230,0.000
1759600988.076,10.742,-8.789,-10.742,-21.973,0.000
1759600988.080,80.078,-10.254,-8.789,-13.184,0.000
1759600988.083,-20.508,-4.883,-3.418,-8.789,0.000
1759600988.087,-92.773,-3.906,-15.137,-4.883,0.000
1759600988.091,-25.879,-9.277,-24.902,-2.930,0.000
1759600988.095,75.684,5.859,-12.695,-8.789,0.000
1759600988.099,16.113,9.766,-9.766,-8.789,0.000
1759600988.103,-85.449,-5.859,-14.648,-15.137,0.000
1759600988.107,-51.270,-4.395,-13.184,-24.414,0.000
1759600988.111,68.848,-1.465,-14.648,-20.508,0.000
1759600988.115,56.641,-1.953,-13.184,-12.207,0.000
1759600988.119,-54.199,-0.488,-4.883,-11.719,0.000
1759600988.122,-55.664,-9.277,-5.859,-8.789,0.000
1759600988.126,56.641,-9.277,-12.207,-4.395,0.000
1759600988.130,87.402,-9.766,-22.461,-1.465,0.000
1759600988.134,-34.180,-11.230,-20.020,-4.395,0.000
1759600988.138,-79.102,-4.883,1.465,-8.789,0.000
1759600988.142,14.648,0.488,2.441,-0.977,0.000
1759600988.146,88.379,-4.395,-28.320,7.812,0.000
1759600988.150,-7.324,-1.465,-22.949,2.930,0.000
1759600988.154,-83.984,2.930,-5.371,-8.301,0.000
1759600988.158,-17.090,-8.301,-19.531,-3.906,0.000
1759600988.162,93.750,-12.695,-26.855,17.090,0.000
1759600988.165,25.391,-7.324,-19.531,12.695,0.000
1759600988.169,-80.566,0.977,0.000,-7.324,0.000
1759600988.173,-45.898,-6.836,-2.441,-9.766,0.000
1759600988.177,72.266,-12.695,-20.020,2.930,0.000
1759600988.181,64.453,-2.930,-11.230,6.836,0.000
1759600988.185,-60.547,0.977,-0.977,-11.230,0.000
1759600988.189,-75.195,-1.953,-12.695,-14.648,0.000
1759600988.193,32.227,-5.371,-29.785,5.371,0.000
1759600988.197,77.637,1.953,-10.254,10.742,0.000
1759600988.201,-41.504,3.418,1.465,-10.742,0.000
1759600988.205,-102.051,-15.625,-23.438,-27.344,0.000
1759600988.208,-10.742,-17.578,-22.949,-16.113,0.000
1759600988.212,81.543,-11.230,-10.742,1.465,0.000
1759600988.216,-16.113,-15.137,-13.184,-12.207,0.000
1759600988.220,-86.426,-16.602,-20.020,-21.484,0.000
1759600988.224,-20.996,-20.020,-26.855,-16.602,0.000
1759600988.228,70.312,-18.555,-29.297,-10.254,0.000
1759600988.232,26.367,-5.371,-12.207,-2.930,0.000
1759600988.236,-74.707,-0.977,-14.648,-1.465,0.000
1759600988.240,-53.711,-2.930,-23.438,0.488,0.000
1759600988.244,53.223,-2.930,-20.996,-6.348,0.000
1759600988.247,50.293,-11.230,-20.020,-16.602,0.000
1759600988.251,-61.523,-5.371,-6.348,-23.438,0.000
1759600988.255,-72.266,-1.465,-10.742,-13.672,0.000
1759600988.259,28.320,-3.906,-14.648,4.883,0.000
1759600988.263,83.008,5.859,-9.277,6.348,0.000
1759600988.267,-23.438,4.395,-9.277,-6.836,0.000
1759600988.271,-71.777,-0.488,-8.789,-3.418,0.000
1759600988.275,17.090,9.277,-2.930,0.977,0.000
1759600988.279,110.352,9.277,-4.883,2.930,0.000
1759600988.283,40.527,-3.906,-12.207,21.973,0.000
1759600988.287,-64.453,-12.207,-3.418,12.207,0.000
1759600988.290,-36.133,-8.301,4.395,-5.859,0.000
1759600988.294,78.125,-12.207,-7.812,8.301,0.000
1759600988.298,46.875,-12.207,-2.930,18.066,0.000
1759600988.302,-66.406,-13.184,7.812,7.812,0.000
1759600988.306,-63.477,-10.742,4.395,-8.301,0.000
1759600988.310,47.852,0.488,-18.066,-3.418,0.000
1759600988.314,67.871,2.930,-22.461,4.883,0.000
1759600988.318,-45.898,4.395,-5.371,-3.906,0.000
1759600988.322,-74.219,1.953,0.488,-11.719,0.000
1759600988.326,23.926,-10.254,-18.555,-4.883,0.000
1759600988.330,95.703,-14.648,-30.273,13.672,0.000
1759600988.333,-3.906,7.324,6.836,4.883,0.000
1759600988.337,-81.543,16.602,13.672,-28.320,0.000
1759600988.341,-15.625,-5.859,-17.578,-31.250,0.000
1759600988.345,88.379,-16.113,-30.273,-0.977,0.000
1759600988.349,16.113,-10.742,-26.367,-1.953,0.000
1759600988.353,-77.148,-15.137,-19.531,-9.277,0.000
1759600988.357,-34.180,-17.090,-23.438,-2.930,0.000
1759600988.361,90.820,-7.324,-26.855,12.695,0.000
1759600988.365,68.359,-3.418,-20.020,12.695,0.000
1759600988.369,-52.734,-6.836,-11.719,0.977,0.000
1759600988.372,-46.387,-12.207,-22.461,0.977,0.000
1759600988.376,65.918,-6.836,-22.461,8.301,0.000
1759600988.380,94.727,4.395,0.488,11.719,0.000
1759600988.384,-32.227,-4.883,-5.371,-3.906,0.000
1759600988.388,-79.590,-13.184,-19.043,-8.301,0.000
1759600988.392,17.090,-11.719,-23.438,2.441,0.000
1759600988.396,95.215,-8.789,-20.508,10.742,0.000
1759600988.400,-6.836,-5.371,-15.137,7.324,0.000
1759600988.404,-78.125,0.977,-9.277,8.301,0.000
1759600988.408,-13.184,-5.859,-8.789,6.348,0.000
1759600988.412,82.031,-21.973,-20.020,0.000,0.000
1759600988.415,27.344,-24.414,-22.949,3.418,0.000
1759600988.419,-71.777,-20.508,-18.066,-0.488,0.000
1759600988.423,-45.410,-8.789,1.465,-13.184,0.000
1759600988.427,82.520,-10.742,-7.812,-2.441,0.000
1759600988.431,74.219,-12.207,-19.531,15.137,0.000
1759600988.435,-52.246,1.465,-1.953,7.812,0.000
1759600988.439,-72.266,-2.441,-5.859,-9.766,0.000
1759600988.443,38.574,-12.695,-32.715,-4.883,0.000
1759600988.447,90.820,-15.625,-35.156,7.812,0.000
1759600988.451,-26.855,-13.184,-12.207,1.953,0.000
1759600988.455,-75.684,-8.301,-7.812,-3.906,0.000
1759600988.458,8.301,-12.207,-21.973,-5.371,0.000
1759600988.462,94.238,-20.508,-34.180,12.695,0.000
1759600988.466,-2.441,-14.160,-20.508,5.371,0.000
1759600988.470,-89.355,-3.906,5.371,-13.184,0.000
1759600988.474,-14.160,-8.789,-1.465,12.695,0.000
1759600988.478,99.121,-3.906,-12.695,25.391,0.000
1759600988.482,40.039,-3.906,-4.395,2.441,0.000
1759600988.486,-74.707,-7.812,-1.465,-13.672,0.000
1759600988.490,-51.758,0.488,-15.137,-7.812,0.000
1759600988.494,59.570,-2.441,-27.832,-4.395,0.000
1759600988.497,56.152,-5.371,-15.137,-8.301,0.000
1759600988.501,-69.336,-0.977,-10.254,-13.672,0.000
1759600988.505,-79.590,3.906,-19.531,-8.301,0.000
1759600988.509,26.855,-3.906,-24.414,2.441,0.000
1759600988.513,73.242,-8.301,-20.508,-7.812,0.000
1759600988.517,-39.551,-8.789,-14.160,-19.531,0.000
1759600988.521,-93.262,-11.719,-17.090,-14.160,0.000
1759600988.525,-3.418,-2.441,-16.602,-5.371,0.000
1759600988.529,84.473,-6.348,-20.020,-3.418,0.000
1759600988.533,-2.441,-21.484,-20.996,-5.859,0.000
1759600988.537,-90.332,-16.602,-9.277,-7.324,0.000
1759600988.540,-44.922,-12.207,-9.277,-15.137,0.000
1759600988.544,63.477,-21.484,-14.648,-11.230,0.000
1759600988.548,25.391,-23.926,-11.230,-14.648,0.000
1759600988.552,-78.613,-12.207,-6.836,-16.602,0.000
1759600988.556,-59.570,-4.395,0.977,-10.742,0.000
1759600988.560,46.387,-10.742,-1.953,-19.043,0.000
1759600988.564,57.617,-20.020,-9.277,-13.184,0.000
1759600988.568,-53.711,-3.906,4.883,-0.488,0.000
1759600988.572,-85.938,-0.488,12.207,-13.672,0.000
1759600988.576,3.906,-19.043,-6.836,-19.531,0.000
1759600988.580,71.289,-19.531,-26.367,-12.207,0.000
1759600988.583,-33.691,-12.695,-18.555,-12.695,0.000
1759600988.587,-101.074,-8.789,-3.906,-15.625,0.000
1759600988.591,-22.461,-9.766,-7.812,-11.230,0.000
1759600988.595,83.984,-9.766,-16.113,1.953,0.000
1759600988.599,13.184,-8.789,-20.996,-4.395,0.000
1759600988.603,-83.984,-3.906,-6.836,-11.230,0.000
1759600988.607,-39.551,-0.977,7.812,-6.836,0.000
1759600988.611,83.984,-4.883,-11.719,6.836,0.000
1759600988.615,64.453,-2.441,-15.625,19.043,0.000
1759600988.619,-64.453,7.812,7.812,-1.953,0.000
1759600988.622,-79.590,-1.953,-8.301,-20.508,0.000
1759600988.626,41.992,-6.348,-20.996,-5.371,0.000
1759600988.630,78.125,-0.488,-20.020,0.488,0.000
1759600988.634,-41.016,7.324,-7.812,-15.137,0.000
1759600988.638,-78.613,4.395,1.465,-14.648,0.000
1759600988.642,12.207,-8.301,-14.648,-2.441,0.000
1759600988.646,88.867,-10.742,-22.949,2.441,0.000
1759600988.650,-1.465,-6.836,-8.789,-5.859,0.000
1759600988.654,-76.660,-3.906,1.953,-14.160,0.000
1759600988.658,-3.906,-3.906,-14.648,0.488,0.000
1759600988.662,111.328,1.465,-8.789,18.066,0.000
1759600988.665,36.621,5.859,9.277,-7.324,0.000
1759600988.669,-77.148,-5.371,-5.859,-15.137,0.000
1759600988.673,-39.062,-5.371,-11.230,-4.883,0.000
1759600988.677,76.660,3.418,-17.090,-8.789,0.000
1759600988.681,55.664,4.883,-19.043,-13.672,0.000
1759600988.685,-65.430,4.395,-15.625,-15.625,0.000
1759600988.689,-68.359,2.441,-17.578,-13.672,0.000
1759600988.693,41.992,1.465,-22.461,-0.977,0.000
1759600988.697,78.125,1.465,-18.555,2.441,0.000
1759600988.701,-32.227,0.488,-18.066,-4.883,0.000
1759600988.705,-68.359,-8.301,-20.508,-8.789,0.000
1759600988.708,15.137,0.000,-9.277,-16.602,0.000
1759600988.712,96.680,13.184,-10.742,-4.883,0.000
1759600988.716,16.602,9.277,-7.324,-0.977,0.000
1759600988.720,-68.359,-7.812,-3.906,-16.113,0.000
1759600988.724,-12.207,-9.277,-7.324,-7.812,0.000
1759600988.728,98.633,-2.930,-7.812,13.184,0.000
1759600988.732,37.598,-10.254,-4.883,3.418,0.000
1759600988.736,-65.918,-11.719,-2.441,-13.184,0.000
1759600988.740,-31.738,-6.836,-1.953,-5.371,0.000
1759600988.744,70.801,-9.766,-8.301,3.906,0.000
1759600988.747,65.918,-16.602,-23.926,17.578,0.000
1759600988.751,-58.594,-12.695,-10.742,10.254,0.000
1759600988.755,-81.055,-7.324,7.324,-8.301,0.000
1759600988.759,36.621,-6.836,-4.395,11.719,0.000
1759600988.763,85.938,-12.695,-16.602,16.113,0.000
1759600988.767,-39.062,-1.465,-7.812,1.465,0.000
1759600988.771,-95.215,-1.953,-0.977,-2.441,0.000
1759600988.775,-3.906,-20.508,-16.113,-0.488,0.000
1759600988.779,90.332,-13.184,-21.484,4.883,0.000
1759600988.783,7.812,-2.441,-7.324,-0.488,0.000
1759600988.787,-78.125,-11.230,-8.301,-12.207,0.000
1759600988.790,-26.855,-13.184,-19.531,-11.719,0.000
1759600988.794,90.332,-10.742,-21.484,2.441,0.000
1759600988.798,42.480,-4.883,1.465,-6.836,0.000
1759600988.802,-78.125,2.930,11.719,-17.578,0.000
1759600988.806,-57.129,-8.301,-8.789,-8.301,0.000
1759600988.810,61.035,-14.160,-22.949,-0.977,0.000
1759600988.814,74.219,-4.395,-8.789,-0.977,0.000
1759600988.818,-45.410,-9.277,0.000,-0.977,0.000
1759600988.822,-73.242,-10.254,-5.859,1.465,0.000
1759600988.826,27.832,0.000,-12.695,0.488,0.000
1759600988.830,88.867,0.000,-19.531,4.883,0.000
1759600988.833,-21.973,-4.395,-14.648,2.930,0.000
1759600988.837,-79.102,-9.766,-17.578,5.859,0.000
1759600988.841,-3.906,-6.348,-18.555,13.672,0.000
1759600988.845,89.355,-0.488,-6.348,6.348,0.000
1759600988.849,26.855,3.418,-2.441,5.371,0.000
1759600988.853,-68.359,7.324,-4.883,0.000,0.000
1759600988.857,-33.691,3.418,-5.371,-13.184,0.000
1759600988.861,82.031,-0.977,-13.184,-7.812,0.000
1759600988.865,57.617,-2.441,-21.973,-2.930,0.000
1759600988.869,-58.105,0.000,-11.230,-11.230,0.000
1759600988.872,-55.664,-1.953,-4.883,-8.301,0.000
1759600988.876,58.105,-4.395,-11.719,7.324,0.000
1759600988.880,81.543,-8.789,-19.531,4.883,0.000
1759600988.884,-41.504,-15.625,-20.508,0.488,0.000
1759600988.888,-74.219,0.977,5.371,4.883,0.000
1759600988.892,18.066,4.395,2.441,8.301,0.000
1759600988.896,84.961,-12.695,-18.555,15.625,0.000
1759600988.900,-6.836,-10.742,-7.324,8.789,0.000
1759600988.904,-83.008,-7.812,0.488,-5.859,0.000
1759600988.908,-20.508,-11.230,-9.766,-2.930,0.000
1759600988.912,90.820,-17.578,-27.344,2.441,0.000
1759600988.915,27.344,-19.043,-19.043,-11.719,0.000
1759600988.919,-81.055,-13.184,0.000,-18.555,0.000
1759600988.923,-53.711,-17.578,-9.277,-11.719,0.000
1759600988.927,64.941,-18.066,-22.461,5.859,0.000
1759600988.931,51.270,-15.137,-19.531,-0.488,0.000
1759600988.935,-75.195,-15.137,-10.254,-20.996,0.000
1759600988.939,-73.730,-14.160,-6.348,-12.207,0.000
1759600988.943,52.734,-12.207,-17.578,8.789,0.000
1759600988.947,89.355,-9.277,-21.484,-0.977,0.000
1759600988.951,-31.250,-5.859,-6.348,-14.160,0.000
1759600988.955,-81.543,-12.207,-10.254,-14.648,0.000
1759600988.958,20.020,-8.301,-12.695,-3.906,0.000
1759600988.962,117.676,-5.371,-6.836,22.461,0.000
1759600988.966,7.812,-15.137,-4.883,6.836,0.000
1759600988.970,-91.309,-14.160,-5.371,-21.973,0.000
1759600988.974,-35.156,-14.648,-14.160,-25.391,0.000
1759600988.978,76.660,-9.277,-6.836,-14.160,0.000
1759600988.982,17.578,6.836,5.371,-22.461,0.000
1759600988.986,-89.844,14.648,2.441,-23.926,0.000
1759600988.990,-60.547,15.137,-7.324,-10.254,0.000
1759600988.994,39.062,8.301,-15.137,-22.461,0.000
1759600988.997,39.062,-10.742,-18.555,-27.832,0.000
1759600989.001,-70.312,-12.695,-7.324,-18.555,0.000
1759600989.005,-88.379,-8.301,-4.883,-10.254,0.000
1759600989.009,15.625,-10.742,-10.742,-10.254,0.000
1759600989.013,73.242,-3.418,-5.859,-5.859,0.000
1759600989.017,-37.109,-1.953,-3.418,-16.113,0.000
1759600989.021,-97.656,-7.812,-8.301,-27.344,0.000
1759600989.025,-18.066,-12.207,-10.742,-19.043,0.000
1759600989.029,80.566,-5.859,-12.695,-10.742,0.000
1759600989.033,-0.488,-17.090,-27.344,-2.930,0.000
1759600989.037,-101.562,-20.996,-14.160,-7.812,0.000
1759600989.040,-46.875,-5.371,2.441,-13.672,0.000
1759600989.044,72.266,-10.742,-21.484,-1.953,0.000
1759600989.048,22.949,-10.254,-16.113,-6.348,0.000
1759600989.052,-85.938,1.953,4.395,-9.277,0.000
1759600989.056,-64.453,7.324,3.418,-3.906,0.000
1759600989.060,52.246,0.488,-8.789,4.883,0.000
1759600989.064,63.477,-1.953,-7.812,3.906,0.000
1759600989.068,-62.012,-0.977,1.465,0.000,0.000
1759600989.072,-88.867,-9.277,5.371,-8.789,0.000
1759600989.076,12.695,-17.578,-15.137,-9.277,0.000
1759600989.079,75.195,-18.555,-28.809,4.883,0.000
1759600989.083,-30.762,0.000,4.395,-1.465,0.000
1759600989.087,-96.680,2.441,8.789,-7.812,0.000
1759600989.091,-25.879,-17.578,-15.137,-14.160,0.000
1759600989.095,76.660,-14.160,-18.555,-9.766,0.000
1759600989.099,7.812,-6.836,-6.836,-9.766,0.000
1759600989.103,-89.844,-8.789,-8.789,-17.578,0.000
1759600989.107,-47.852,-8.789,-9.277,-23.438,0.000
1759600989.111,72.266,-7.324,-9.766,-14.648,0.000
1759600989.115,37.109,-1.465,-14.648,-10.742,0.000
1759600989.119,-78.613,-1.953,-1.953,-15.137,0.000
1759600989.122,-76.172,-12.695,-11.230,-9.766,0.000
1759600989.126,29.785,-6.348,-16.113,-6.836,0.000
1759600989.130,70.801,9.766,9.277,-0.488,0.000
1759600989.134,-48.828,4.883,7.812,-7.324,0.000
1759600989.138,-101.074,-6.348,-5.371,-27.832,0.000
1759600989.142,0.488,2.441,-3.418,-17.578,0.000
1759600989.146,77.637,18.066,-5.371,-12.695,0.000
1759600989.150,-31.738,10.254,0.000,-21.973,0.000
1759600989.154,-123.047,-7.324,20.020,-36.621,0.000
1759600989.158,-61.035,4.883,31.250,-40.527,0.000
1759600989.162,48.828,13.184,20.508,-35.645,0.000
1759600989.165,-20.508,4.395,9.277,-51.758,0.000
1759600989.169,-145.020,6.836,5.859,-71.289,0.000
1759600989.173,-133.789,24.414,30.273,-96.191,0.000
1759600989.177,-19.043,26.367,60.059,-100.098,0.000
1759600989.181,-41.016,28.320,43.457,-105.469,0.000
1759600989.185,-190.918,25.391,24.902,-143.555,0.000
1759600989.189,-222.168,36.133,43.945,-166.504,0.000
1759600989.193,-130.371,42.480,45.410,-172.852,0.000
1759600989.197,-112.793,38.574,48.340,-188.477,0.000
1759600989.201,-256.836,49.805,69.824,-218.750,0.000
1759600989.204,-303.711,61.523,79.102,-224.609,0.000
1759600989.208,-215.820,58.594,63.477,-227.539,0.000
1759600989.212,-156.250,45.898,34.668,-225.098,0.000
1759600989.216,-242.188,46.387,44.922,-215.820,0.000
1759600989.220,-308.105,59.082,72.266,-218.750,0.000
1759600989.224,-244.629,70.312,64.453,-213.867,0.000
1759600989.228,-125.488,74.219,49.316,-200.684,0.000
1759600989.232,-167.969,77.148,57.129,-193.359,0.000
1759600989.236,-275.391,80.566,57.617,-202.637,0.000
1759600989.240,-236.328,74.219,39.062,-188.477,0.000
1759600989.244,-101.074,64.453,28.809,-154.297,0.000
1759600989.247,-108.887,57.129,28.320,-155.273,0.000
1759600989.251,-227.051,58.594,34.180,-164.062,0.000
1759600989.255,-222.656,61.035,27.832,-142.578,0.000
1759600989.259,-95.215,54.688,12.207,-119.629,0.000
1759600989.263,-39.062,46.387,21.484,-122.070,0.000
1759600989.267,-157.715,41.992,31.738,-131.836,0.000
1759600989.271,-196.289,38.086,15.625,-120.117,0.000
1759600989.275,-87.402,33.691,-0.977,-89.355,0.000
1759600989.279,16.602,29.785,8.301,-70.312,0.000
1759600989.283,-65.430,28.809,16.113,-76.172,0.000
1759600989.287,-145.996,24.902,4.395,-65.918,0.000
1759600989.290,-78.125,17.578,0.488,-41.992,0.000
1759600989.294,50.293,19.043,6.836,-24.414,0.000
1759600989.298,15.625,12.695,-1.465,-21.973,0.000
1759600989.302,-90.332,6.836,-8.789,-14.160,0.000
1759600989.306,-54.688,9.277,0.977,5.859,0.000
1759600989.310,65.430,-9.766,-7.812,14.160,0.000
1759600989.314,70.801,-29.297,-22.461,7.812,0.000
1759600989.318,-32.227,-21.973,-24.902,16.602,0.000
1759600989.322,-52.734,-22.949,-25.391,20.020,0.000
1759600989.326,46.387,-25.879,-28.320,22.461,0.000
1759600989.330,117.188,-30.273,-41.992,38.574,0.000
1759600989.333,11.719,-40.527,-39.062,37.598,0.000
1759600989.337,-50.293,-38.574,-24.414,37.109,0.000
1759600989.341,36.621,-34.668,-25.391,45.898,0.000
1759600989.345,142.090,-33.203,-41.992,53.711,0.000
1759600989.349,66.895,-38.086,-49.805,57.617,0.000
1759600989.353,-23.926,-35.645,-33.203,55.664,0.000
1759600989.357,23.438,-28.320,-26.367,55.664,0.000
1759600989.361,140.625,-41.992,-45.898,69.336,0.000
1759600989.365,110.840,-56.152,-51.758,72.266,0.000
1759600989.369,-15.625,-50.293,-28.320,50.293,0.000
1759600989.372,-16.113,-56.641,-30.273,47.852,0.000
1759600989.376,104.980,-62.012,-48.828,65.918,0.000
1759600989.380,129.883,-57.617,-59.570,62.988,0.000
1759600989.384,14.160,-42.969,-40.039,47.363,0.000
1759600989.388,-19.043,-39.551,-25.879,40.039,0.000
1759600989.392,73.242,-38.086,-40.039,45.410,0.000
1759600989.396,149.902,-34.668,-49.805,59.570,0.000
1759600989.400,42.480,-34.180,-20.996,46.875,0.000
1759600989.404,-54.199,-42.969,-1.953,10.254,0.000
1759600989.408,1.465,-52.734,-35.156,19.043,0.000
1759600989.412,113.281,-27.344,-29.785,41.504,0.000
1759600989.415,38.574,-21.484,-3.906,11.230,0.000
1759600989.419,-76.172,-17.090,-1.953,-14.648,0.000
1759600989.423,-70.801,-6.836,-5.859,-41.504,0.000
1759600989.427,34.668,0.977,11.719,-45.898,0.000
1759600989.431,9.277,-0.977,25.391,-59.570,0.000
1759600989.435,-131.836,-2.441,19.043,-85.938,0.000
1759600989.439,-142.578,9.277,19.531,-84.961,0.000
1759600989.443,-30.273,7.812,12.695,-77.148,0.000
1759600989.447,-0.977,8.789,13.184,-85.449,0.000
1759600989.451,-132.324,10.254,16.602,-97.656,0.000
1759600989.454,-177.246,11.230,11.230,-87.402,0.000
1759600989.458,-80.566,21.484,17.090,-83.496,0.000
1759600989.462,10.254,27.832,13.184,-73.242,0.000
1759600989.466,-64.453,27.344,6.836,-60.547,0.000
1759600989.470,-129.883,21.484,12.695,-60.059,0.000
1759600989.474,-62.500,11.230,4.883,-46.875,0.000
1759600989.478,58.594,7.812,-12.207,-25.879,0.000
1759600989.482,14.160,0.488,-6.836,-18.066,0.000
1759600989.486,-81.543,-1.953,-3.418,-18.066,0.000
1759600989.490,-60.547,-16.113,-27.832,-25.391,0.000
1759600989.494,55.664,-24.902,-41.992,-13.184,0.000
1759600989.497,77.148,-17.090,-44.434,20.996,0.000
1759600989.501,-33.691,-27.344,-31.738,32.715,0.000
1759600989.505,-39.062,-26.855,-16.113,27.344,0.000
1759600989.509,83.984,-18.066,-30.762,41.016,0.000
1759600989.513,128.418,-25.879,-40.527,50.781,0.000
1759600989.517,7.812,-32.715,-31.738,40.527,0.000
1759600989.521,-37.598,-25.391,-29.785,39.062,0.000
1759600989.525,53.711,-26.855,-41.504,55.176,0.000
1759600989.529,146.484,-33.203,-49.316,62.012,0.000
1759600989.533,63.965,-29.297,-38.574,52.246,0.000
1759600989.537,-17.090,-24.414,-28.320,54.688,0.000
1759600989.540,37.109,-33.691,-43.457,62.500,0.000
1759600989.544,137.695,-42.480,-62.500,65.430,0.000
1759600989.548,95.215,-26.367,-36.133,57.617,0.000
1759600989.552,-11.719,-28.320,-24.414,43.457,0.000
1759600989.556,13.184,-34.668,-39.062,50.781,0.000
1759600989.560,136.719,-30.273,-43.945,67.871,0.000
1759600989.564,139.160,-32.715,-41.992,64.941,0.000
1759600989.568,13.184,-36.621,-40.039,62.012,0.000
1759600989.572,-10.254,-36.621,-35.156,61.035,0.000
1759600989.576,86.914,-30.273,-34.180,56.641,0.000
1759600989.579,144.531,-27.832,-34.180,63.477,0.000
1759600989.583,47.363,-31.250,-30.762,61.523,0.000
1759600989.587,-15.137,-40.039,-46.387,62.012,0.000
1759600989.591,67.871,-22.461,-38.574,73.242,0.000
1759600989.595,154.297,-19.043,-34.180,61.523,0.000
1759600989.599,66.895,-31.250,-47.852,44.922,0.000
1759600989.603,-19.531,-26.855,-36.621,41.504,0.000
1759600989.607,21.484,-27.832,-31.250,50.293,0.000
1759600989.611,136.230,-30.762,-33.691,59.570,0.000
1759600989.615,107.422,-29.785,-36.133,51.270,0.000
1759600989.619,-11.719,-23.926,-33.691,45.898,0.000
1759600989.622,-7.812,-20.020,-23.926,42.480,0.000
1759600989.626,105.957,-16.113,-28.320,47.852,0.000
1759600989.630,125.488,-21.973,-45.898,54.688,0.000
1759600989.634,12.695,-26.367,-42.480,49.805,0.000
1759600989.638,-14.160,-12.207,-3.906,47.852,0.000
1759600989.642,78.613,-4.883,-8.789,53.711,0.000
1759600989.646,139.160,-18.066,-43.457,46.875,0.000
1759600989.650,29.785,-21.973,-34.668,36.133,0.000
1759600989.654,-38.574,-12.695,-20.996,36.621,0.000
1759600989.658,26.367,-14.648,-26.367,39.551,0.000
1759600989.662,121.582,-21.973,-34.180,46.875,0.000
1759600989.665,60.059,-12.695,-22.461,46.875,0.000
1759600989.669,-44.922,-7.324,-10.742,30.762,0.000
1759600989.673,-14.648,-13.184,-16.602,22.461,0.000
1759600989.677,109.375,-21.484,-29.785,44.434,0.000
1759600989.681,92.773,-21.973,-32.227,44.922,0.000
1759600989.685,-36.133,-19.531,-18.555,26.855,0.000
1759600989.689,-37.109,-5.371,-10.254,28.320,0.000
1759600989.693,79.102,-0.977,-36.621,34.668,0.000
1759600989.697,102.539,-16.113,-41.016,20.020,0.000
1759600989.701,-24.414,-13.672,-14.160,4.395,0.000
1759600989.704,-53.223,-7.812,-16.113,16.602,0.000
1759600989.708,44.434,-17.090,-30.762,31.250,0.000
1759600989.712,119.629,-17.090,-31.250,35.156,0.000
1759600989.716,24.902,-12.207,-20.508,20.020,0.000
1759600989.720,-45.898,-15.137,-20.508,14.160,0.000
1759600989.724,21.973,-19.043,-30.762,29.297,0.000
1759600989.728,121.582,-15.625,-29.297,33.691,0.000
1759600989.732,61.523,-8.789,-18.066,26.367,0.000
1759600989.736,-43.945,-11.719,-20.996,19.531,0.000
1759600989.740,-20.996,-12.207,-26.855,21.973,0.000
1759600989.744,81.055,-20.508,-25.391,15.625,0.000
1759600989.747,72.266,-23.926,-23.926,12.695,0.000
1759600989.751,-38.086,-9.277,-16.113,20.020,0.000
1759600989.755,-44.434,-9.277,-13.672,27.344,0.000
1759600989.759,54.199,-20.508,-18.066,20.020,0.000
1759600989.763,102.051,-9.277,-16.113,20.508,0.000
1759600989.767,-11.230,-4.395,-7.812,17.578,0.000
1759600989.771,-67.383,-17.578,-11.719,9.277,0.000
1759600989.775,19.531,-20.020,-16.602,17.090,0.000
1759600989.779,113.770,-3.418,-11.230,30.762,0.000
1759600989.783,29.785,5.371,-17.090,36.621,0.000
1759600989.787,-72.754,-4.883,-15.625,19.043,0.000
1759600989.790,-27.832,-18.555,-16.113,3.906,0.000
1759600989.794,86.914,-20.508,-33.691,7.324,0.000
1759600989.798,40.039,-11.719,-26.367,0.000,0.000
1759600989.802,-67.383,-5.859,-9.277,-7.812,0.000
1759600989.806,-54.688,-12.695,-13.672,-13.184,0.000
1759600989.810,59.082,-22.461,-26.367,0.000,0.000
1759600989.814,65.430,-20.508,-26.855,9.766,0.000
1759600989.818,-55.664,-13.184,-12.207,-0.977,0.000
1759600989.822,-74.707,-13.184,4.883,-1.953,0.000
1759600989.826,33.691,-16.113,-8.789,18.555,0.000
1759600989.829,97.168,-15.137,-22.461,28.809,0.000
1759600989.833,-25.391,-9.277,2.441,-0.488,0.000
1759600989.837,-82.031,-7.324,9.277,-8.789,0.000
1759600989.841,1.953,-7.812,-15.625,-2.441,0.000
1759600989.845,97.168,-6.348,-20.508,7.812,0.000
1759600989.849,25.879,-8.301,-9.766,6.836,0.000
1759600989.853,-64.941,-13.672,-6.836,2.930,0.000
1759600989.857,-19.531,-11.719,-10.254,8.301,0.000
1759600989.861,90.332,-1.465,-19.043,16.113,0.000
1759600989.865,49.805,-0.977,-18.555,12.207,0.000
1759600989.869,-58.594,2.441,-14.160,-1.953,0.000
1759600989.872,-51.270,-10.742,-33.203,1.465,0.000
1759600989.876,51.758,-16.602,-28.809,16.113,0.000
1759600989.880,75.684,-10.742,-7.812,5.371,0.000
1759600989.884,-34.180,-12.207,-8.301,-1.953,0.000
1759600989.888,-72.266,-12.695,-13.184,1.953,0.000
1759600989.892,22.949,-5.859,-16.602,6.836,0.000
1759600989.896,95.215,0.977,-14.160,13.672,0.000
1759600989.900,-21.484,-12.207,-17.090,-3.906,0.000
1759600989.904,-96.680,-24.414,-25.879,-11.719,0.000
1759600989.908,-17.578,-14.648,-29.297,-5.371,0.000
1759600989.912,83.008,-14.648,-35.156,-6.836,0.000
1759600989.915,25.391,-10.742,-22.461,1.953,0.000
1759600989.919,-72.754,-4.883,-10.742,10.742,0.000
1759600989.923,-52.246,-15.137,-18.066,-11.230,0.000
1759600989.927,74.219,-16.602,-25.391,-4.395,0.000
1759600989.931,56.641,-22.949,-24.902,2.441,0.000
1759600989.935,-74.219,-27.344,-18.555,-14.160,0.000
1759600989.939,-74.707,-19.531,-11.230,-14.160,0.000
1759600989.943,43.945,-12.207,-21.484,2.930,0.000
1759600989.947,70.801,-11.719,-25.391,3.418,0.000
1759600989.951,-50.293,-13.672,-3.906,-7.812,0.000
1759600989.954,-86.426,-9.277,0.000,-7.324,0.000
1759600989.958,4.883,-12.695,-17.578,-9.277,0.000
1759600989.962,78.125,-32.227,-41.504,0.488,0.000
1759600989.966,-24.902,-30.762,-29.297,-3.418,0.000
1759600989.970,-102.051,-4.883,0.488,-22.949,0.000
1759600989.974,-34.180,-16.113,-15.625,-17.090,0.000
1759600989.978,76.660,-27.344,-23.438,-1.953,0.000
1759600989.982,20.996,-12.207,-7.324,-9.766,0.000
1759600989.986,-82.520,-9.766,-6.836,-24.902,0.000
1759600989.990,-54.199,-12.207,-24.414,-24.902,0.000
1759600989.994,58.105,-16.602,-35.645,-18.555,0.000
1759600989.997,60.059,-7.324,-19.531,-13.184,0.000
1759600990.001,-48.340,9.766,-3.418,-11.230,0.000
1759600990.005,-66.406,-3.906,-13.184,-12.695,0.000
1759600990.009,37.109,-20.996,-26.855,-5.371,0.000
1759600990.013,76.172,-7.324,-15.137,-11.719,0.000
1759600990.017,-39.551,-7.324,-5.371,-23.438,0.000
1759600990.021,-83.496,-14.648,-13.672,-13.672,0.000
1759600990.025,-7.324,-12.695,-20.996,-13.184,0.000
1759600990.029,77.148,-6.836,-17.578,-9.766,0.000
1759600990.033,-2.441,0.000,-8.789,-9.766,0.000
1759600990.037,-83.984,-3.418,-14.160,-15.137,0.000
1759600990.040,-21.484,0.000,-14.648,-9.277,0.000
1759600990.044,82.520,-9.277,-17.578,-9.766,0.000
1759600990.048,28.320,-10.254,-22.949,-21.484,0.000
1759600990.052,-76.660,-9.766,-25.879,-19.531,0.000
1759600990.056,-56.152,-7.812,-22.461,-18.066,0.000
1759600990.060,53.711,-3.418,-17.090,-12.695,0.000
1759600990.064,58.594,-3.418,-18.555,1.465,0.000
1759600990.068,-50.293,-3.906,-13.672,9.277,0.000
1759600990.072,-64.941,-6.836,-6.348,2.441,0.000
1759600990.076,31.738,-13.184,-18.066,-5.859,0.000
1759600990.079,93.750,-11.719,-21.973,1.465,0.000
1759600990.083,-9.766,0.000,-4.395,-2.930,0.000
1759600990.087,-83.496,-8.789,-8.301,-18.555,0.000
1759600990.091,0.000,-5.859,-16.602,-8.301,0.000
1759600990.095,103.027,-3.906,-24.414,9.766,0.000
1759600990.099,18.555,-6.836,-24.902,1.465,0.000
1759600990.103,-71.777,2.930,-4.883,-10.742,0.000
1759600990.107,-28.320,9.277,0.000,-9.766,0.000
1759600990.111,76.172,-2.441,-23.438,-1.465,0.000
1759600990.115,48.828,-6.348,-28.320,12.207,0.000
1759600990.119,-62.012,5.859,0.000,3.418,0.000
1759600990.122,-61.523,0.977,5.859,-11.230,0.000
1759600990.126,53.223,-10.254,-12.207,-3.906,0.000
1759600990.130,68.359,-8.789,-15.625,-2.930,0.000
1759600990.134,-55.664,-3.906,1.465,-9.277,0.000
1759600990.138,-84.961,-5.371,3.906,-13.184,0.000
1759600990.142,11.719,-10.742,-13.184,-10.742,0.000
1759600990.146,83.496,-16.113,-27.832,1.953,0.000
1759600990.150,-22.461,-5.859,-17.578,-7.324,0.000
1759600990.154,-82.031,7.324,4.395,-6.348,0.000
1759600990.158,4.883,-8.301,-18.066,15.625,0.000
1759600990.162,93.262,-16.113,-27.344,16.602,0.000
1759600990.165,9.277,-1.953,-0.977,-6.836,0.000
1759600990.169,-91.309,3.906,3.418,-7.812,0.000
1759600990.173,-44.434,-1.465,-7.324,-0.977,0.000
1759600990.177,69.824,-14.648,-21.973,-3.906,0.000
1759600990.181,47.363,-4.395,-8.301,-0.488,0.000
1759600990.185,-74.707,-6.348,-7.324,-10.254,0.000
1759600990.189,-83.496,-20.996,-27.344,-19.531,0.000
1759600990.193,41.016,-22.461,-35.156,-14.648,0.000
1759600990.197,74.219,-22.949,-31.738,-8.301,0.000
1759600990.201,-41.016,-9.766,-20.996,0.977,0.000
1759600990.204,-68.848,-3.418,-20.996,-2.441,0.000
1759600990.208,13.184,-7.812,-17.578,-18.066,0.000
1759600990.212,77.148,-12.207,-17.090,-4.883,0.000
1759600990.216,-18.066,-10.742,-18.066,0.488,0.000
1759600990.220,-85.938,-2.930,-12.695,-8.301,0.000
1759600990.224,-4.395,8.789,-5.859,4.883,0.000
1759600990.228,94.238,1.953,-14.648,2.930,0.000
1759600990.232,17.090,-10.742,-24.414,-16.113,0.000
1759600990.236,-86.426,-3.906,-23.438,-24.902,0.000
1759600990.240,-57.129,-6.348,-26.855,-23.438,0.000
1759600990.244,54.688,-15.137,-32.227,-18.555,0.000
1759600990.247,47.363,-15.137,-38.574,-3.418,0.000
1759600990.251,-69.336,-14.648,-21.484,-6.348,0.000
1759600990.255,-74.707,-7.812,0.977,-14.648,0.000
1759600990.259,28.320,-5.371,-16.602,-7.812,0.000
1759600990.263,58.594,-11.230,-24.902,-8.301,0.000
1759600990.267,-50.293,-11.230,-5.859,-11.719,0.000
1759600990.271,-95.215,-8.789,-2.441,-19.531,0.000
1759600990.275,-9.277,-14.160,-14.648,-13.184,0.000
1759600990.279,78.125,-14.648,-18.555,0.977,0.000
1759600990.283,-10.742,-3.906,-12.695,-6.348,0.000
1759600990.287,-89.844,-5.859,-10.254,-16.113,0.000
1759600990.290,-33.691,-20.020,-23.438,-12.695,0.000
1759600990.294,73.242,-17.578,-28.809,-4.883,0.000
1759600990.298,20.508,-11.230,-9.277,-14.160,0.000
1759600990.302,-93.750,-13.184,-2.930,-25.391,0.000
1759600990.306,-62.500,-11.230,-24.902,-20.020,0.000
1759600990.310,70.312,-7.812,-26.367,2.441,0.000
1759600990.314,64.941,-4.883,-7.812,0.000,0.000
1759600990.318,-72.266,-8.789,-23.438,-16.602,0.000
1759600990.322,-91.797,-6.348,-26.367,-21.973,0.000
1759600990.326,23.438,-1.465,-22.461,-13.184,0.000
1759600990.329,98.145,-12.207,-24.902,15.137,0.000
1759600990.333,3.418,-21.973,-4.883,23.926,0.000
1759600990.337,-63.477,-22.949,-5.371,14.160,0.000
1759600990.341,-4.883,-13.672,-1.953,9.277,0.000
1759600990.345,77.148,0.000,24.414,4.395,0.000
1759600990.349,-8.301,-5.859,30.273,-4.883,0.000
1759600990.353,-106.445,-15.137,33.203,-14.648,0.000
1759600990.357,-63.965,-2.441,46.875,-15.137,0.000
1759600990.361,34.668,-4.395,37.598,-15.137,0.000
1759600990.365,-2.441,-24.414,32.715,-17.090,0.000
1759600990.369,-116.211,-14.648,59.570,-22.461,0.000
1759600990.372,-111.816,-3.906,65.918,-27.344,0.000
1759600990.376,-5.371,-17.090,45.898,-22.461,0.000
1759600990.380,17.090,-22.949,32.227,-12.695,0.000
1759600990.384,-83.496,-16.113,39.551,-10.254,0.000
1759600990.388,-115.723,0.977,52.246,-24.414,0.000
1759600990.392,-14.648,-0.488,41.016,-21.484,0.000
1759600990.396,63.477,-15.137,27.832,3.418,0.000
1759600990.400,-25.391,-7.324,38.574,2.930,0.000
1759600990.404,-93.262,-5.371,43.457,-9.766,0.000
1759600990.408,-20.020,-16.113,30.762,-5.371,0.000
1759600990.411,89.355,-20.996,17.090,10.742,0.000
1759600990.415,12.695,-15.137,24.902,8.301,0.000
1759600990.419,-82.520,-16.602,36.621,10.254,0.000
1759600990.423,-41.992,-23.926,29.297,13.672,0.000
1759600990.427,64.941,-22.949,9.277,10.742,0.000
1759600990.431,44.434,-18.555,10.742,7.812,0.000
1759600990.435,-62.500,-9.277,23.926,-6.836,0.000
1759600990.439,-60.547,-5.371,17.090,-2.441,0.000
1759600990.443,50.293,-9.766,-7.812,23.438,0.000
1759600990.447,77.637,-10.254,-6.836,20.508,0.000
1759600990.451,-37.598,-9.766,14.648,5.859,0.000
1759600990.454,-67.871,-6.348,12.207,16.602,0.000
1759600990.458,27.344,-11.719,4.395,25.391,0.000
1759600990.462,97.168,-18.555,3.418,21.973,0.000
1759600990.466,1.953,-12.207,7.812,13.672,0.000
1759600990.470,-71.777,-17.578,-0.977,7.324,0.000
1759600990.474,-7.812,-18.555,-14.648,15.625,0.000
1759600990.478,92.285,-10.742,-16.602,15.625,0.000
1759600990.482,23.926,-3.418,0.977,9.277,0.000
1759600990.486,-75.195,-7.812,5.371,6.836,0.000
1759600990.490,-47.363,-18.066,-8.301,0.488,0.000
1759600990.494,67.383,-8.789,-9.277,6.836,0.000
1759600990.497,62.012,-5.371,-8.301,9.277,0.000
1759600990.501,-46.387,-5.371,3.418,14.160,0.000
1759600990.505,-51.758,-1.465,1.465,15.625,0.000
1759600990.509,55.664,4.395,1.953,10.254,0.000
1759600990.513,96.191,5.859,-1.953,10.254,0.000
1759600990.517,-23.926,2.441,-5.859,-1.465,0.000
1759600990.521,-70.312,-2.930,-0.488,2.930,0.000
1759600990.525,16.602,-6.836,-0.488,5.371,0.000
1759600990.529,93.262,-5.371,-7.812,6.348,0.000
1759600990.533,-2.441,-16.113,-23.926,15.137,0.000
1759600990.536,-87.402,-16.602,-16.602,5.859,0.000
1759600990.540,-31.250,-0.977,-3.418,-4.883,0.000
1759600990.544,83.496,4.395,-17.090,6.836,0.000
1759600990.548,34.180,-1.953,-18.555,2.930,0.000
1759600990.552,-73.242,-7.324,-12.695,-2.930,0.000
1759600990.556,-47.852,1.465,-7.812,-0.488,0.000
1759600990.560,66.406,-0.977,-22.949,-1.465,0.000
1759600990.564,61.523,-22.949,-34.180,-9.277,0.000
1759600990.568,-60.059,-21.484,-27.344,-22.461,0.000
1759600990.572,-72.754,0.000,-18.066,-21.973,0.000
1759600990.576,31.250,-11.230,-24.902,-6.348,0.000
1759600990.579,83.496,-22.949,-34.668,3.418,0.000
1759600990.583,-30.273,0.977,-3.418,-7.324,0.000
1759600990.587,-91.797,1.465,4.883,-16.113,0.000
1759600990.591,-8.789,-9.766,-22.461,-6.836,0.000
