timestamps,TP9,AF7,AF8,TP10,Right AUX
1759553082.581,-24.902,-13.672,-34.180,-1.953,0.000
1759553082.585,-0.977,-18.066,-41.992,-2.930,0.000
1759553082.589,33.691,-20.996,-46.875,5.859,0.000
1759553082.592,12.695,-16.113,-45.410,10.254,0.000
1759553082.596,-23.926,-17.578,-44.922,9.277,0.000
1759553082.600,-9.766,-23.926,-46.387,12.695,0.000
1759553082.604,28.320,-22.949,-59.570,18.555,0.000
1759553082.608,24.902,-12.695,-51.270,16.113,0.000
1759553082.612,-8.789,-8.789,-33.691,5.859,0.000
1759553082.616,-5.859,-9.766,-41.992,8.789,0.000
1759553082.620,27.344,-11.230,-45.410,15.625,0.000
1759553082.624,37.109,-16.113,-40.039,22.949,0.000
1759553082.628,0.488,-19.043,-39.062,21.973,0.000
1759553082.632,-19.043,-18.066,-45.410,16.602,0.000
1759553082.635,10.742,-17.090,-55.664,14.648,0.000
1759553082.639,33.203,-22.461,-58.594,11.719,0.000
1759553082.643,7.324,-19.531,-55.176,8.789,0.000
1759553082.647,-12.695,-25.391,-56.152,16.602,0.000
1759553082.651,3.418,-31.738,-53.223,19.531,0.000
1759553082.655,28.809,-20.020,-43.945,5.371,0.000
1759553082.659,23.926,-16.602,-43.945,7.324,0.000
1759553082.663,2.441,-20.996,-41.992,21.973,0.000
1759553082.667,0.977,-20.996,-36.133,18.555,0.000
1759553082.671,11.719,-20.020,-36.621,-0.488,0.000
1759553082.674,5.859,-21.973,-40.039,-6.348,0.000
1759553082.678,-28.809,-26.855,-34.668,-4.883,0.000
1759553082.682,-41.992,-22.949,-30.273,-9.277,0.000
1759553082.686,-7.324,-18.555,-34.180,-10.742,0.000
1759553082.690,12.207,-19.531,-37.109,-8.301,0.000
1759553082.694,-20.508,-19.043,-39.551,-7.324,0.000
1759553082.698,-37.109,-16.113,-39.551,-7.812,0.000
1759553082.702,-16.602,-19.043,-39.551,-11.230,0.000
1759553082.706,0.488,-23.438,-48.828,-5.859,0.000
1759553082.710,-15.137,-26.855,-51.270,-0.977,0.000
1759553082.714,-39.062,-23.438,-33.203,-5.371,0.000
1759553082.717,-23.926,-23.438,-29.785,0.000,0.000
1759553082.721,13.672,-25.391,-36.621,1.465,0.000
1759553082.725,13.184,-18.066,-34.180,-0.488,0.000
1759553082.729,-25.879,-18.555,-28.320,-5.859,0.000
1759553082.733,-13.672,-16.113,-25.879,-3.418,0.000
1759553082.737,27.344,-17.578,-29.297,6.836,0.000
1759553082.741,21.973,-26.855,-35.156,3.906,0.000
1759553082.745,-11.230,-19.531,-32.715,-2.441,0.000
1759553082.749,-18.555,-11.230,-24.902,-2.441,0.000
1759553082.753,20.996,-17.578,-36.621,13.184,0.000
1759553082.757,38.574,-20.996,-39.062,26.855,0.000
1759553082.760,-1.953,-17.090,-25.391,16.602,0.000
1759553082.764,-23.926,-18.066,-27.832,13.184,0.000
1759553082.768,9.277,-20.996,-34.180,18.555,0.000
1759553082.772,40.039,-18.555,-38.086,13.672,0.000
1759553082.776,17.090,-18.066,-39.551,10.742,0.000
1759553082.780,-8.301,-21.973,-36.621,11.719,0.000
1759553082.784,4.395,-21.973,-37.109,10.742,0.000
1759553082.788,34.180,-22.461,-45.898,19.043,0.000
1759553082.792,26.855,-21.973,-47.363,13.672,0.000
1759553082.796,-8.789,-22.949,-40.527,3.418,0.000
1759553082.799,-9.766,-29.297,-39.551,10.254,0.000
1759553082.803,14.648,-22.949,-38.086,5.859,0.000
1759553082.807,17.090,-20.508,-40.039,-1.953,0.000
1759553082.811,-10.742,-25.391,-42.480,-5.371,0.000
1759553082.815,-21.484,-24.414,-42.969,-4.395,0.000
1759553082.819,5.371,-22.461,-44.922,-6.836,0.000
1759553082.823,18.066,-18.555,-53.223,-10.742,0.000
1759553082.827,-10.742,-18.066,-52.246,1.465,0.000
1759553082.831,-32.715,-21.484,-42.969,0.000,0.000
1759553082.835,-11.719,-29.785,-44.434,-6.348,0.000
1759553082.839,21.484,-25.879,-47.852,-4.395,0.000
1759553082.842,14.160,-22.461,-46.387,4.395,0.000
1759553082.846,-19.043,-27.344,-43.945,10.742,0.000
1759553082.850,-12.695,-21.484,-36.621,8.301,0.000
1759553082.854,31.250,-12.695,-42.480,4.395,0.000
1759553082.858,27.832,-11.230,-50.781,-0.977,0.000
1759553082.862,-11.719,-10.742,-43.945,1.465,0.000
1759553082.866,-15.625,-10.742,-39.062,5.371,0.000
1759553082.870,14.648,-21.484,-46.875,9.766,0.000
1759553082.874,23.438,-19.043,-48.828,16.602,0.000
1759553082.878,-9.277,-6.348,-52.246,7.812,0.000
1759553082.882,-20.508,-11.719,-55.176,1.465,0.000
1759553082.885,-1.953,-20.508,-59.082,-3.418,0.000
1759553082.889,20.508,-23.438,-69.336,2.441,0.000
1759553082.893,-4.395,-17.578,-56.152,1.953,0.000
1759553082.897,-31.738,-10.254,-42.969,-7.812,0.000
1759553082.901,-3.418,-17.090,-48.828,2.930,0.000
1759553082.905,27.832,-21.484,-54.199,10.742,0.000
1759553082.909,12.695,-18.066,-49.316,4.395,0.000
1759553082.913,-15.625,-15.137,-41.992,1.953,0.000
1759553082.917,-3.418,-14.160,-42.480,6.348,0.000
1759553082.921,29.785,-11.230,-44.434,5.371,0.000
1759553082.924,27.344,-20.996,-41.504,1.953,0.000
1759553082.928,-10.742,-26.855,-42.480,-0.488,0.000
1759553082.932,-10.742,-21.484,-49.805,6.836,0.000
1759553082.936,29.297,-15.137,-50.781,10.742,0.000
1759553082.940,36.133,-10.254,-45.410,1.953,0.000
1759553082.944,4.883,-10.742,-41.504,1.465,0.000
1759553082.948,-6.348,-13.672,-41.016,5.859,0.000
1759553082.952,21.973,-15.137,-43.945,5.859,0.000
1759553082.956,41.992,-13.184,-43.457,5.859,0.000
1759553082.960,14.648,-21.484,-43.457,6.836,0.000
1759553082.964,-14.648,-18.066,-39.551,5.859,0.000
1759553082.967,3.906,-8.301,-35.645,8.789,0.000
1759553082.971,31.738,-15.625,-42.480,11.230,0.000
1759553082.975,14.648,-20.020,-50.781,3.906,0.000
1759553082.979,-16.113,-25.879,-56.152,8.301,0.000
1759553082.983,-16.113,-25.879,-49.805,9.277,0.000
1759553082.987,6.348,-19.043,-45.898,-4.883,0.000
1759553082.991,12.695,-22.949,-56.152,-4.395,0.000
1759553082.995,-14.160,-25.879,-56.152,1.953,0.000
1759553082.999,-27.344,-27.832,-54.688,-3.418,0.000
1759553083.003,-0.977,-31.250,-62.988,-15.625,0.000
1759553083.007,20.996,-28.809,-69.824,-9.766,0.000
1759553083.010,-6.348,-26.855,-65.430,-12.695,0.000
1759553083.014,-30.273,-27.344,-54.199,-21.484,0.000
1759553083.018,-3.906,-19.531,-54.199,-12.695,0.000
1759553083.022,27.832,-20.508,-64.941,4.395,0.000
1759553083.026,11.719,-26.855,-66.895,3.906,0.000
1759553083.030,-21.484,-26.855,-53.223,-10.254,0.000
1759553083.034,-14.160,-27.344,-49.316,-9.277,0.000
1759553083.038,25.391,-25.879,-55.176,-0.488,0.000
1759553083.042,16.602,-24.414,-51.270,0.977,0.000
1759553083.046,-32.227,-28.320,-44.922,-6.348,0.000
1759553083.049,-24.902,-27.344,-42.480,-3.418,0.000
1759553083.053,13.672,-22.461,-47.363,1.953,0.000
1759553083.057,19.043,-16.113,-47.363,5.859,0.000
1759553083.061,-5.371,-17.090,-40.527,9.766,0.000
1759553083.065,-10.254,-27.344,-37.109,8.301,0.000
1759553083.069,23.926,-32.227,-43.945,12.695,0.000
1759553083.073,42.480,-30.762,-47.363,11.719,0.000
1759553083.077,5.371,-27.832,-39.062,3.418,0.000
1759553083.081,-11.230,-32.227,-39.062,2.441,0.000
1759553083.085,13.184,-30.762,-47.852,9.277,0.000
1759553083.089,27.832,-28.320,-46.387,7.324,0.000
1759553083.092,12.207,-26.855,-48.340,1.465,0.000
1759553083.096,-16.602,-29.297,-51.270,6.836,0.000
1759553083.100,-19.043,-29.785,-48.340,1.465,0.000
1759553083.104,9.277,-29.297,-48.828,-3.418,0.000
1759553083.108,4.395,-36.133,-52.246,-4.395,0.000
1759553083.112,-27.832,-39.062,-49.316,-9.277,0.000
1759553083.116,-19.531,-30.273,-44.434,-9.277,0.000
1759553083.120,8.789,-20.020,-42.969,-10.254,0.000
1759553083.124,15.137,-25.391,-45.410,-13.672,0.000
1759553083.128,-8.301,-35.156,-47.363,-7.324,0.000
1759553083.132,-19.531,-28.809,-37.598,-6.836,0.000
1759553083.135,3.906,-19.043,-30.762,-11.230,0.000
1759553083.139,24.902,-22.461,-36.621,-3.906,0.000
1759553083.143,-3.418,-30.762,-39.551,-1.953,0.000
1759553083.147,-32.227,-25.879,-34.668,-5.859,0.000
1759553083.151,-15.625,-22.949,-35.645,-17.090,0.000
1759553083.155,12.695,-24.902,-42.480,-13.672,0.000
1759553083.159,-0.977,-32.227,-47.852,-4.883,0.000
1759553083.163,-23.926,-35.645,-44.434,4.883,0.000
1759553083.167,-16.602,-20.996,-43.457,-1.953,0.000
1759553083.171,7.812,-13.672,-50.293,-19.043,0.000
1759553083.174,4.395,-17.578,-58.105,-12.207,0.000
1759553083.178,-36.133,-15.137,-51.270,-13.184,0.000
1759553083.182,-41.016,-15.137,-45.898,-17.578,0.000
1759553083.186,-5.859,-25.879,-57.617,-13.184,0.000
1759553083.190,11.719,-26.855,-56.641,-8.789,0.000
1759553083.194,-10.742,-23.926,-48.340,-6.836,0.000
1759553083.198,-26.367,-25.391,-44.434,-5.859,0.000
1759553083.202,0.000,-20.996,-48.340,-4.395,0.000
1759553083.206,24.902,-18.555,-52.246,-0.977,0.000
1759553083.210,-7.812,-26.855,-50.293,-0.488,0.000
1759553083.214,-40.039,-31.250,-42.969,-7.324,0.000
1759553083.217,-17.578,-31.250,-47.852,3.906,0.000
1759553083.221,23.438,-30.762,-53.223,18.066,0.000
1759553083.225,11.719,-24.902,-39.551,4.395,0.000
1759553083.229,-19.043,-20.020,-38.086,2.441,0.000
1759553083.233,-6.836,-19.043,-43.457,6.836,0.000
1759553083.237,29.297,-16.602,-42.480,7.812,0.000
1759553083.241,24.414,-10.254,-41.016,3.418,0.000
1759553083.245,-15.137,-13.184,-41.016,-1.953,0.000
1759553083.249,-21.973,-16.602,-41.504,-2.441,0.000
1759553083.253,10.742,-16.602,-46.387,-1.953,0.000
1759553083.257,25.391,-22.949,-52.246,2.930,0.000
1759553083.260,-4.883,-27.344,-52.734,3.906,0.000
1759553083.264,-18.066,-27.832,-50.781,7.812,0.000
1759553083.268,9.277,-23.438,-45.410,9.766,0.000
1759553083.272,36.621,-20.996,-42.480,6.348,0.000
1759553083.276,22.949,-22.949,-42.480,6.348,0.000
1759553083.280,-3.418,-25.391,-39.062,5.859,0.000
1759553083.284,6.348,-21.484,-35.156,5.371,0.000
1759553083.288,29.785,-18.066,-36.133,8.301,0.000
1759553083.292,25.391,-19.043,-46.875,11.719,0.000
1759553083.296,-8.301,-14.648,-42.969,7.324,0.000
1759553083.299,-10.742,-18.555,-37.598,6.836,0.000
1759553083.303,30.273,-24.414,-45.898,11.719,0.000
1759553083.307,36.133,-17.578,-55.664,18.066,0.000
1759553083.311,1.953,-11.230,-51.758,15.137,0.000
1759553083.315,-9.277,-8.789,-39.551,2.930,0.000
1759553083.319,21.484,-9.766,-42.480,3.418,0.000
1759553083.323,43.945,-17.578,-52.246,5.371,0.000
1759553083.327,8.789,-20.996,-52.246,0.977,0.000
1759553083.331,-21.484,-15.137,-40.039,-3.906,0.000
1759553083.335,10.742,-20.020,-36.133,-0.488,0.000
1759553083.339,37.109,-27.344,-45.898,1.465,0.000
1759553083.342,18.555,-21.973,-47.852,-2.930,0.000
1759553083.346,-7.324,-25.879,-40.527,-0.977,0.000
1759553083.350,0.000,-30.273,-42.480,-3.418,0.000
1759553083.354,22.949,-30.762,-52.246,1.465,0.000
1759553083.358,10.742,-25.879,-48.340,1.465,0.000
1759553083.362,-25.391,-24.414,-41.016,-5.859,0.000
1759553083.366,-23.926,-30.273,-45.898,-5.371,0.000
1759553083.370,15.137,-28.809,-54.199,-7.324,0.000
1759553083.374,21.484,-24.902,-52.246,-7.812,0.000
1759553083.378,-13.184,-23.438,-42.969,-8.789,0.000
1759553083.382,-26.855,-22.949,-39.551,-4.883,0.000
1759553083.385,0.000,-23.926,-39.551,2.930,0.000
1759553083.389,18.555,-26.367,-42.969,-3.418,0.000
1759553083.393,0.488,-28.320,-46.875,-5.859,0.000
1759553083.397,-15.137,-33.691,-53.223,9.277,0.000
1759553083.401,-5.371,-31.738,-61.035,-9.277,0.000
1759553083.405,13.672,-19.043,-56.152,-32.227,0.000
1759553083.409,-4.883,-17.578,-55.664,-24.414,0.000
1759553083.413,-36.133,-20.508,-55.176,-26.367,0.000
1759553083.417,-20.508,-23.438,-55.176,-35.156,0.000
1759553083.421,10.742,-28.809,-62.012,-32.715,0.000
1759553083.425,9.277,-31.738,-63.965,-21.973,0.000
1759553083.428,-13.184,-26.855,-56.641,-16.113,0.000
1759553083.432,-14.160,-25.879,-52.246,-13.672,0.000
1759553083.436,19.043,-27.832,-53.223,-8.301,0.000
1759553083.440,34.668,-20.508,-57.129,-2.441,0.000
1759553083.444,3.906,-22.461,-60.547,-8.301,0.000
1759553083.448,-16.602,-27.832,-53.711,-10.742,0.000
1759553083.452,2.930,-26.855,-50.781,-7.812,0.000
1759553083.456,26.367,-26.367,-55.664,-2.930,0.000
1759553083.460,9.277,-32.715,-60.059,8.301,0.000
1759553083.464,-16.113,-31.250,-43.457,7.812,0.000
1759553083.467,2.441,-20.020,-38.574,-0.977,0.000
1759553083.471,31.250,-24.414,-51.270,1.953,0.000
1759553083.475,8.301,-27.344,-47.363,1.465,0.000
1759553083.479,-27.832,-17.090,-40.527,-0.977,0.000
1759553083.483,-26.855,-21.973,-42.969,-3.906,0.000
1759553083.487,9.277,-30.762,-51.758,1.953,0.000
1759553083.491,16.602,-26.367,-47.852,7.812,0.000
1759553083.495,-18.066,-21.484,-41.016,-2.930,0.000
1759553083.499,-28.320,-27.832,-42.480,-9.277,0.000
1759553083.503,7.324,-40.527,-54.199,4.883,0.000
1759553083.507,24.414,-40.527,-59.570,10.742,0.000
1759553083.510,-11.230,-31.738,-48.828,-4.883,0.000
1759553083.514,-19.043,-30.762,-42.480,-5.371,0.000
1759553083.518,10.254,-30.762,-43.945,-0.488,0.000
1759553083.522,25.391,-29.785,-54.688,-4.883,0.000
1759553083.526,3.418,-31.250,-51.270,-6.836,0.000
1759553083.530,-22.461,-27.832,-44.922,-0.488,0.000
1759553083.534,-10.742,-19.043,-50.781,-1.953,0.000
1759553083.538,16.602,-23.438,-57.617,-8.301,0.000
1759553083.542,5.371,-25.391,-57.617,-7.324,0.000
1759553083.546,-19.043,-20.996,-48.828,-1.465,0.000
1759553083.550,-10.254,-20.508,-52.246,2.441,0.000
1759553083.553,19.043,-17.090,-52.734,-3.906,0.000
1759553083.557,26.367,-14.648,-45.898,-8.789,0.000
1759553083.561,-8.789,-19.043,-49.805,-6.836,0.000
1759553083.565,-29.297,-21.973,-51.758,-11.230,0.000
1759553083.569,-0.488,-21.973,-50.781,-15.625,0.000
1759553083.573,22.461,-25.391,-49.805,-11.719,0.000
1759553083.577,-0.977,-20.508,-49.316,-2.441,0.000
1759553083.581,-23.926,-17.090,-44.922,6.348,0.000
1759553083.585,-3.906,-18.066,-44.922,10.742,0.000
1759553083.589,20.508,-19.043,-45.898,10.254,0.000
1759553083.592,12.695,-23.926,-49.316,19.043,0.000
1759553083.596,-7.324,-21.973,-47.363,22.461,0.000
1759553083.600,2.930,-13.672,-34.180,10.254,0.000
1759553083.604,44.434,-12.695,-38.086,17.578,0.000
1759553083.608,37.598,-10.254,-41.504,25.391,0.000
1759553083.612,-2.441,-12.695,-33.691,22.461,0.000
1759553083.616,5.859,-18.066,-27.344,25.391,0.000
1759553083.620,44.434,-18.066,-32.715,25.391,0.000
1759553083.624,40.039,-14.648,-39.551,18.555,0.000
1759553083.628,1.953,-13.184,-37.598,15.625,0.000
1759553083.632,-10.742,-24.414,-38.574,15.137,0.000
1759553083.635,8.789,-29.785,-46.387,10.742,0.000
1759553083.639,37.598,-31.250,-54.688,32.227,0.000
1759553083.643,22.461,-25.879,-46.875,37.598,0.000
1759553083.647,-5.859,-10.742,-44.434,15.625,0.000
1759553083.651,11.230,-8.789,-57.617,9.766,0.000
1759553083.655,26.367,-10.742,-71.777,-3.906,0.000
1759553083.659,-3.906,-1.953,-71.777,-25.391,0.000
1759553083.663,-42.480,-1.953,-71.289,-34.668,0.000
1759553083.667,-33.691,1.465,-84.961,-38.574,0.000
1759553083.671,1.465,12.695,-95.215,-42.480,0.000
1759553083.675,-20.508,18.555,-105.957,-68.359,0.000
1759553083.678,-66.895,11.719,-109.863,-87.402,0.000
1759553083.682,-63.477,4.395,-112.793,-72.266,0.000
1759553083.686,-44.434,11.230,-123.535,-76.660,0.000
1759553083.690,-45.410,16.602,-124.023,-101.074,0.000
1759553083.694,-65.430,11.719,-120.605,-95.703,0.000
1759553083.698,-80.078,21.484,-118.164,-95.703,0.000
1759553083.702,-59.082,19.531,-122.559,-95.703,0.000
1759553083.706,-23.926,13.184,-123.047,-76.172,0.000
1759553083.710,-36.133,15.625,-115.234,-67.383,0.000
1759553083.714,-60.059,10.254,-110.352,-64.453,0.000
1759553083.717,-41.504,5.371,-109.863,-59.082,0.000
1759553083.721,-6.348,0.000,-110.840,-47.363,0.000
1759553083.725,-4.395,-3.906,-107.910,-41.016,0.000
1759553083.729,-30.273,-7.324,-103.027,-38.086,0.000
1759553083.733,-28.320,-3.906,-95.215,-37.109,0.000
1759553083.737,-0.488,-1.953,-89.844,-36.621,0.000
1759553083.741,4.395,-6.836,-91.309,-33.691,0.000
1759553083.745,-17.090,-6.348,-88.867,-32.715,0.000
1759553083.749,-18.555,-5.371,-81.055,-21.484,0.000
1759553083.753,10.742,-6.348,-79.590,-16.113,0.000
1759553083.757,27.832,-3.906,-85.938,-18.555,0.000
1759553083.760,-4.883,-2.930,-82.520,-16.113,0.000
1759553083.764,-24.902,-6.836,-71.777,-11.719,0.000
1759553083.768,4.883,-12.207,-73.242,-7.324,0.000
1759553083.772,40.527,-18.066,-81.543,8.301,0.000
1759553083.776,22.949,-18.555,-83.008,8.301,0.000
1759553083.780,-18.066,-13.672,-70.801,-5.371,0.000
1759553083.784,-1.465,-4.883,-67.383,1.953,0.000
1759553083.788,42.969,-7.812,-75.684,18.555,0.000
1759553083.792,28.809,-15.625,-70.801,14.648,0.000
1759553083.796,-8.789,-6.836,-58.594,3.418,0.000
1759553083.800,-4.395,-7.324,-59.570,6.836,0.000
1759553083.803,31.250,-15.625,-67.383,12.207,0.000
1759553083.807,38.086,-11.230,-65.430,11.230,0.000
1759553083.811,0.000,-14.160,-56.641,6.836,0.000
1759553083.815,-16.602,-22.949,-51.758,8.301,0.000
1759553083.819,10.254,-31.250,-61.523,9.277,0.000
1759553083.823,26.855,-28.320,-60.059,9.766,0.000
1759553083.827,-1.953,-21.973,-47.852,3.906,0.000
1759553083.831,-20.996,-21.484,-47.852,2.930,0.000
1759553083.835,-4.883,-19.531,-54.199,6.348,0.000
1759553083.839,12.695,-19.043,-53.223,3.418,0.000
1759553083.842,1.465,-24.414,-51.758,0.977,0.000
1759553083.846,-27.344,-24.414,-51.758,-6.348,0.000
1759553083.850,-16.602,-18.555,-48.828,-5.371,0.000
1759553083.854,21.973,-20.020,-48.340,1.953,0.000
1759553083.858,14.648,-25.391,-51.270,0.000,0.000
1759553083.862,-17.578,-28.320,-53.223,2.441,0.000
1759553083.866,-11.230,-26.855,-54.199,5.371,0.000
1759553083.870,20.508,-24.902,-55.664,4.883,0.000
1759553083.874,22.461,-22.461,-57.129,-1.465,0.000
1759553083.878,-6.836,-24.414,-60.547,-0.977,0.000
1759553083.882,-15.137,-27.344,-56.152,1.465,0.000
1759553083.885,5.859,-15.625,-45.410,-3.418,0.000
1759553083.889,24.414,-14.160,-56.152,-0.488,0.000
1759553083.893,0.488,-23.926,-59.082,0.000,0.000
1759553083.897,-24.414,-23.926,-46.387,1.953,0.000
1759553083.901,-4.395,-20.996,-43.457,2.441,0.000
1759553083.905,26.855,-21.484,-52.246,2.930,0.000
1759553083.909,12.695,-23.438,-59.570,1.953,0.000
1759553083.913,-20.020,-23.438,-53.223,1.953,0.000
1759553083.917,-10.742,-21.484,-44.434,0.977,0.000
1759553083.921,27.344,-19.043,-39.062,3.418,0.000
1759553083.925,25.391,-18.066,-38.086,5.371,0.000
1759553083.928,-13.672,-18.066,-41.016,0.000,0.000
1759553083.932,-17.090,-19.531,-43.457,0.000,0.000
1759553083.936,14.648,-17.578,-52.246,3.906,0.000
1759553083.940,23.926,-19.043,-59.570,13.672,0.000
1759553083.944,-7.324,-20.996,-50.781,8.301,0.000
1759553083.948,-24.902,-20.508,-44.922,-6.348,0.000
1759553083.952,-0.488,-21.973,-54.199,-5.371,0.000
1759553083.956,22.949,-22.461,-56.152,-3.906,0.000
1759553083.960,-4.395,-23.438,-51.758,-8.789,0.000
1759553083.964,-32.227,-24.414,-46.875,-10.742,0.000
1759553083.967,-4.883,-23.438,-49.316,-1.953,0.000
1759553083.971,41.504,-18.066,-51.758,16.113,0.000
1759553083.975,32.227,-13.184,-41.504,17.090,0.000
1759553083.979,-18.066,-16.113,-36.621,1.953,0.000
1759553083.983,-33.203,-19.531,-37.109,-15.137,0.000
1759553083.987,6.836,-28.809,-37.598,-9.766,0.000
1759553083.991,3.906,-23.926,-31.738,-8.789,0.000
1759553083.995,-36.621,-20.996,-35.156,-20.996,0.000
1759553083.999,-30.762,-20.996,-39.551,-15.137,0.000
1759553084.003,4.883,-13.672,-34.668,-6.348,0.000
1759553084.007,17.578,-20.508,-37.109,-3.906,0.000
1759553084.010,-8.301,-25.391,-43.945,-6.348,0.000
1759553084.014,-18.066,-23.926,-49.316,-0.977,0.000
1759553084.018,-0.488,-22.949,-42.480,-1.953,0.000
1759553084.022,17.090,-18.555,-35.645,-9.766,0.000
1759553084.026,-1.953,-24.414,-41.504,-8.301,0.000
1759553084.030,-31.738,-27.832,-43.945,-11.230,0.000
1759553084.034,-17.578,-21.973,-44.922,-11.719,0.000
1759553084.038,15.625,-26.367,-48.340,-7.812,0.000
1759553084.042,8.789,-30.762,-56.152,-7.812,0.000
1759553084.046,-24.414,-26.367,-56.641,-5.371,0.000
1759553084.050,-20.996,-22.949,-44.434,0.000,0.000
1759553084.053,13.184,-30.273,-48.828,-1.465,0.000
1759553084.057,15.137,-33.203,-59.082,-1.953,0.000
1759553084.061,-19.043,-29.297,-51.270,-2.930,0.000
1759553084.065,-35.645,-26.855,-39.551,-6.348,0.000
1759553084.069,-5.859,-32.715,-42.480,-13.672,0.000
1759553084.073,20.020,-36.621,-55.176,-6.348,0.000
1759553084.077,-15.137,-35.156,-53.223,-0.977,0.000
1759553084.081,-52.246,-32.227,-41.016,-13.184,0.000
1759553084.085,-25.391,-32.227,-43.457,-9.766,0.000
1759553084.089,9.766,-29.785,-46.387,-3.418,0.000
1759553084.092,-11.230,-25.879,-44.434,-5.371,0.000
1759553084.096,-38.086,-24.902,-34.180,-3.418,0.000
1759553084.100,-17.090,-21.973,-40.527,-0.488,0.000
1759553084.104,19.043,-20.508,-55.664,8.301,0.000
1759553084.108,12.695,-18.066,-48.340,11.719,0.000
1759553084.112,-26.855,-16.602,-37.598,2.441,0.000
1759553084.116,-22.461,-17.578,-41.504,-1.953,0.000
1759553084.120,19.043,-21.973,-52.246,-6.348,0.000
1759553084.124,20.996,-27.832,-54.688,-9.766,0.000
1759553084.128,-18.555,-23.926,-49.805,-9.766,0.000
1759553084.132,-24.902,-19.531,-50.293,-2.441,0.000
1759553084.135,6.836,-24.414,-52.734,-2.441,0.000
1759553084.139,24.902,-22.949,-44.922,-9.277,0.000
1759553084.143,-6.348,-21.484,-42.969,-8.301,0.000
1759553084.147,-28.809,-29.297,-44.434,0.000,0.000
1759553084.151,-7.812,-25.391,-46.387,6.836,0.000
1759553084.155,14.648,-20.996,-42.969,-1.465,0.000
1759553084.159,-2.441,-21.484,-42.969,-8.301,0.000
1759553084.163,-27.832,-23.438,-45.898,-8.301,0.000
1759553084.167,-18.066,-26.855,-46.387,-12.695,0.000
1759553084.171,7.324,-22.949,-49.316,-18.066,0.000
1759553084.175,11.230,-23.438,-42.969,-11.230,0.000
1759553084.178,-14.160,-22.461,-35.156,-5.371,0.000
1759553084.182,-20.508,-20.508,-36.621,-8.789,0.000
1759553084.186,16.602,-18.555,-38.574,-2.930,0.000
1759553084.190,35.645,-18.555,-39.551,2.930,0.000
1759553084.194,3.906,-18.555,-41.016,-0.488,0.000
1759553084.198,-15.625,-13.184,-35.156,1.465,0.000
1759553084.202,6.348,-15.137,-36.621,0.000,0.000
1759553084.206,24.902,-23.438,-47.363,3.906,0.000
1759553084.210,3.906,-27.344,-47.363,15.137,0.000
1759553084.214,-25.879,-22.949,-33.203,3.418,0.000
1759553084.217,-11.719,-25.391,-34.180,2.441,0.000
1759553084.221,18.066,-26.855,-44.922,8.301,0.000
1759553084.225,2.930,-20.996,-42.969,-4.395,0.000
1759553084.229,-31.250,-19.043,-40.039,-10.254,0.000
1759553084.233,-21.484,-25.879,-37.598,2.930,0.000
1759553084.237,20.996,-32.227,-43.457,14.648,0.000
1759553084.241,22.949,-27.344,-46.875,13.672,0.000
1759553084.245,-15.625,-21.484,-38.086,2.441,0.000
1759553084.249,-27.344,-19.531,-36.621,-4.883,0.000
1759553084.253,6.836,-24.414,-52.246,8.301,0.000
1759553084.257,20.020,-31.738,-62.500,14.160,0.000
1759553084.260,-7.324,-22.461,-51.758,-0.488,0.000
1759553084.264,-16.602,-20.020,-48.340,-1.953,0.000
1759553084.268,4.395,-23.926,-51.270,-1.953,0.000
1759553084.272,24.414,-21.484,-51.270,0.488,0.000
1759553084.276,6.348,-21.973,-48.828,0.488,0.000
1759553084.280,-20.020,-20.020,-41.504,1.465,0.000
1759553084.284,-4.883,-20.508,-45.898,2.930,0.000
1759553084.288,25.391,-20.020,-60.059,3.906,0.000
1759553084.292,13.672,-22.949,-61.035,3.418,0.000
1759553084.296,-15.625,-23.926,-49.316,4.395,0.000
1759553084.300,-4.395,-20.508,-49.805,16.113,0.000
1759553084.303,27.344,-15.625,-50.781,8.789,0.000
1759553084.307,21.973,-14.648,-50.293,0.488,0.000
1759553084.311,-12.695,-27.832,-54.688,5.859,0.000
1759553084.315,-17.578,-22.461,-50.781,6.348,0.000
1759553084.319,9.766,-17.090,-52.734,3.906,0.000
1759553084.323,23.438,-20.996,-59.570,3.418,0.000
1759553084.327,-0.488,-20.508,-53.711,4.395,0.000
1759553084.331,-17.090,-21.484,-47.363,3.906,0.000
1759553084.335,6.348,-16.113,-49.316,3.906,0.000
1759553084.339,33.203,-20.020,-51.270,2.930,0.000
1759553084.343,17.090,-30.273,-57.129,5.859,0.000
1759553084.346,-7.324,-28.320,-60.059,8.789,0.000
1759553084.350,-0.488,-19.531,-55.176,-4.395,0.000
1759553084.354,27.832,-18.066,-58.594,-2.930,0.000
1759553084.358,25.391,-22.461,-55.176,6.348,0.000
1759553084.362,-11.230,-27.344,-48.340,-0.488,0.000
1759553084.366,-13.672,-24.902,-45.410,-0.977,0.000
1759553084.370,22.461,-28.809,-48.828,8.789,0.000
1759553084.374,31.738,-30.273,-57.617,9.766,0.000
1759553084.378,1.465,-27.832,-60.059,3.906,0.000
1759553084.382,-13.672,-27.344,-59.082,2.930,0.000
1759553084.385,10.742,-26.367,-59.570,1.953,0.000
1759553084.389,33.691,-32.227,-62.988,5.371,0.000
1759553084.393,5.859,-28.320,-52.734,4.395,0.000
1759553084.397,-22.461,-23.438,-40.039,2.930,0.000
1759553084.401,2.930,-27.832,-44.434,7.812,0.000
1759553084.405,30.273,-25.879,-52.246,8.301,0.000
1759553084.409,7.812,-17.090,-51.758,3.906,0.000
1759553084.413,-22.461,-24.414,-51.758,-1.465,0.000
1759553084.417,-3.906,-32.715,-58.594,0.488,0.000
1759553084.421,28.320,-30.762,-64.453,1.465,0.000
1759553084.425,20.996,-20.996,-61.523,3.418,0.000
1759553084.428,-7.812,-12.695,-52.246,7.324,0.000
1759553084.432,-3.906,-19.043,-52.246,9.766,0.000
1759553084.436,25.391,-20.996,-58.594,9.766,0.000
1759553084.440,27.832,-16.602,-52.734,-3.418,0.000
1759553084.444,-5.371,-15.625,-51.270,-10.254,0.000
1759553084.448,-18.555,-19.531,-55.664,-4.883,0.000
1759553084.452,6.836,-19.531,-60.059,-4.395,0.000
1759553084.456,31.250,-14.648,-59.082,-0.488,0.000
1759553084.460,10.254,-20.020,-53.223,2.930,0.000
1759553084.464,-14.648,-22.949,-49.805,4.395,0.000
1759553084.468,4.395,-17.090,-44.434,2.930,0.000
1759553084.471,31.738,-12.207,-42.480,0.488,0.000
1759553084.475,10.742,-20.996,-50.293,-3.418,0.000
1759553084.479,-19.043,-29.297,-58.105,0.977,0.000
1759553084.483,-10.742,-23.926,-53.711,-4.395,0.000
1759553084.487,23.926,-20.020,-48.340,-10.742,0.000
1759553084.491,31.250,-21.973,-54.688,-0.977,0.000
1759553084.495,-7.812,-24.414,-56.641,-0.488,0.000
1759553084.499,-12.695,-17.090,-49.316,3.906,0.000
1759553084.503,20.996,-13.184,-50.781,5.371,0.000
1759553084.507,30.762,-22.949,-58.105,0.488,0.000
1759553084.510,-2.441,-22.461,-56.641,-2.930,0.000
1759553084.514,-25.391,-20.508,-52.246,-8.789,0.000
1759553084.518,1.953,-18.066,-59.082,-10.742,0.000
1759553084.522,33.691,-14.648,-69.336,0.488,0.000
1759553084.526,13.672,-18.066,-64.453,8.789,0.000
1759553084.530,-22.461,-18.555,-53.223,-3.418,0.000
1759553084.534,-5.371,-11.719,-50.781,-5.859,0.000
1759553084.538,32.715,-9.277,-53.711,6.348,0.000
1759553084.542,16.113,-15.625,-53.711,0.977,0.000
1759553084.546,-25.879,-17.578,-49.805,-9.766,0.000
1759553084.550,-18.066,-19.531,-51.758,-2.930,0.000
1759553084.553,16.113,-18.066,-55.664,-2.441,0.000
1759553084.557,16.602,-14.648,-54.199,1.465,0.000
1759553084.561,-13.672,-14.648,-51.758,-2.930,0.000
1759553084.565,-23.926,-14.160,-51.758,-12.695,0.000
1759553084.569,10.254,-22.949,-60.059,-8.789,0.000
1759553084.573,27.344,-21.484,-60.547,-1.953,0.000
1759553084.577,-0.488,-18.555,-49.316,0.488,0.000
1759553084.581,-18.066,-25.391,-43.945,3.418,0.000
1759553084.585,3.418,-38.086,-46.387,2.930,0.000
1759553084.589,21.973,-37.598,-45.898,-5.859,0.000
1759553084.592,-4.395,-26.855,-45.410,-8.789,0.000
1759553084.596,-29.297,-23.926,-45.410,-9.766,0.000
1759553084.600,-16.113,-25.879,-42.480,-17.578,0.000
1759553084.604,12.207,-23.438,-42.969,-14.648,0.000
1759553084.608,12.695,-20.508,-45.898,-0.488,0.000
1759553084.612,-17.090,-21.973,-44.434,-0.488,0.000
1759553084.616,-16.602,-19.531,-42.480,-5.859,0.000
1759553084.620,13.672,-24.414,-44.434,-0.488,0.000
1759553084.624,12.695,-33.203,-41.992,1.953,0.000
1759553084.628,-13.184,-35.156,-43.945,10.742,0.000
1759553084.632,-18.066,-32.715,-42.969,22.949,0.000
1759553084.635,6.836,-26.367,-33.691,9.766,0.000
1759553084.639,19.531,-22.461,-34.668,4.883,0.000
1759553084.643,-6.348,-23.926,-35.645,7.324,0.000
1759553084.647,-26.367,-22.949,-29.297,4.395,0.000
1759553084.651,-9.766,-29.297,-33.691,-4.883,0.000
1759553084.655,25.391,-32.715,-43.945,0.000,0.000
1759553084.659,12.695,-32.715,-40.527,4.395,0.000
1759553084.663,-21.484,-31.250,-36.621,-5.371,0.000
1759553084.667,-10.742,-26.855,-42.969,-8.301,0.000
1759553084.671,20.996,-26.855,-44.922,-0.488,0.000
1759553084.675,22.461,-24.902,-42.969,8.789,0.000
1759553084.678,-17.578,-20.996,-37.109,0.488,0.000
1759553084.682,-25.879,-21.484,-37.598,-5.859,0.000
1759553084.686,7.324,-27.344,-54.199,-6.836,0.000
1759553084.690,16.602,-30.762,-58.594,-9.277,0.000
1759553084.694,-22.949,-31.250,-50.293,-16.113,0.000
1759553084.698,-45.898,-27.832,-48.340,-22.949,0.000
1759553084.702,-16.113,-29.297,-53.223,-17.090,0.000
1759553084.706,2.930,-31.738,-56.641,-17.090,0.000
1759553084.710,-13.672,-30.762,-55.176,-19.043,0.000
1759553084.714,-34.668,-33.203,-48.340,-14.648,0.000
1759553084.718,-21.973,-29.785,-50.781,-2.441,0.000
1759553084.721,11.230,-33.203,-59.570,5.371,0.000
1759553084.725,-4.883,-31.250,-50.781,-9.277,0.000
1759553084.729,-35.156,-28.320,-41.504,-12.695,0.000
1759553084.733,-20.996,-32.227,-43.457,-10.742,0.000
1759553084.737,16.113,-35.156,-46.875,-14.648,0.000
1759553084.741,13.184,-27.344,-48.340,-13.672,0.000
1759553084.745,-25.391,-23.926,-52.734,-12.695,0.000
1759553084.749,-28.320,-31.250,-53.223,-7.324,0.000
1759553084.753,15.137,-29.297,-48.340,1.953,0.000
1759553084.757,34.180,-27.832,-45.410,5.371,0.000
1759553084.760,-2.930,-30.762,-41.992,-3.906,0.000
1759553084.764,-27.344,-39.551,-41.992,-1.953,0.000
1759553084.768,-0.977,-40.527,-39.062,-3.906,0.000
1759553084.772,30.273,-36.133,-34.668,-10.742,0.000
1759553084.776,12.207,-39.551,-35.645,0.977,0.000
1759553084.780,-16.602,-38.574,-36.133,3.418,0.000
1759553084.784,-6.348,-32.227,-40.527,-4.883,0.000
1759553084.788,17.090,-28.320,-48.340,-9.277,0.000
1759553084.792,8.301,-30.273,-54.199,-12.207,0.000
1759553084.796,-27.344,-31.250,-49.316,-7.812,0.000
1759553084.800,-27.344,-31.738,-45.410,2.930,0.000
1759553084.803,3.418,-33.203,-55.664,-2.441,0.000
1759553084.807,3.418,-38.086,-48.340,-0.977,0.000
1759553084.811,-26.855,-23.926,-29.785,5.859,0.000
1759553084.815,-41.016,-15.625,-19.043,-9.766,0.000
1759553084.819,-17.578,-14.160,-19.043,-20.508,0.000
1759553084.823,4.883,4.395,-27.344,-18.066,0.000
1759553084.827,-19.043,-3.906,-28.809,-15.137,0.000
1759553084.831,-47.852,-15.137,-31.250,-24.902,0.000
1759553084.835,-43.457,-23.926,-20.508,-47.363,0.000
1759553084.839,-25.879,-17.578,-20.508,-55.664,0.000
1759553084.843,-54.199,-7.812,-12.207,-62.500,0.000
1759553084.846,-104.492,8.789,5.371,-82.520,0.000
1759553084.850,-105.957,6.348,-2.930,-99.121,0.000
1759553084.854,-98.145,-21.484,-28.809,-130.371,0.000
1759553084.858,-125.488,6.348,-22.461,-151.855,0.000
1759553084.862,-176.270,22.461,-1.953,-169.434,0.000
1759553084.866,-181.641,35.156,-14.648,-182.129,0.000
1759553084.870,-158.203,40.039,-14.648,-191.895,0.000
1759553084.874,-158.691,32.715,2.930,-198.242,0.000
1759553084.878,-211.914,34.668,2.441,-221.680,0.000
1759553084.882,-242.188,56.152,23.926,-231.934,0.000
1759553084.885,-214.844,78.613,24.414,-229.004,0.000
1759553084.889,-204.590,72.266,-5.859,-242.188,0.000
1759553084.893,-232.422,77.637,-5.859,-241.699,0.000
1759553084.897,-250.000,75.684,-1.465,-222.168,0.000
1759553084.901,-228.027,77.637,0.977,-213.867,0.000
1759553084.905,-204.590,79.102,-4.395,-219.727,0.000
1759553084.909,-216.797,78.613,-7.324,-215.332,0.000
1759553084.913,-227.539,81.055,-12.695,-205.566,0.000
1759553084.917,-188.477,81.543,-12.207,-187.012,0.000
1759553084.921,-143.066,80.078,-4.395,-174.316,0.000
1759553084.925,-150.879,68.359,-8.789,-166.504,0.000
1759553084.928,-169.922,59.570,-9.766,-147.949,0.000
1759553084.932,-146.973,61.523,-3.418,-129.395,0.000
1759553084.936,-98.633,57.617,-5.371,-123.047,0.000
1759553084.940,-75.684,41.992,-14.648,-109.863,0.000
1759553084.944,-89.355,29.297,-15.137,-92.285,0.000
1759553084.948,-96.680,21.973,-9.766,-86.426,0.000
1759553084.952,-56.152,14.648,-17.578,-75.684,0.000
1759553084.956,-14.648,9.277,-24.414,-55.176,0.000
1759553084.960,-29.785,1.953,-29.297,-41.504,0.000
1759553084.964,-37.598,0.488,-31.250,-27.832,0.000
1759553084.968,5.859,-0.977,-37.598,-5.371,0.000
1759553084.971,46.387,-11.230,-47.852,5.371,0.000
1759553084.975,25.879,-24.902,-51.270,16.113,0.000
1759553084.979,1.953,-29.785,-49.316,36.621,0.000
1759553084.983,24.414,-32.227,-53.711,38.086,0.000
1759553084.987,71.777,-40.527,-62.988,43.945,0.000
1759553084.991,79.102,-47.363,-65.430,58.594,0.000
1759553084.995,41.016,-43.945,-53.711,56.152,0.000
1759553084.999,39.551,-43.457,-47.852,53.711,0.000
1759553085.003,84.961,-51.758,-63.477,67.383,0.000
1759553085.007,99.609,-57.129,-75.684,77.637,0.000
1759553085.010,59.570,-54.688,-71.289,65.430,0.000
1759553085.014,49.805,-51.758,-62.988,68.848,0.000
1759553085.018,89.355,-62.012,-65.918,77.148,0.000
1759553085.022,111.816,-70.801,-71.289,83.984,0.000
1759553085.026,89.844,-67.383,-60.547,87.402,0.000
1759553085.030,65.430,-67.871,-54.688,90.332,0.000
1759553085.034,73.242,-71.777,-62.012,90.820,0.000
1759553085.038,109.375,-67.871,-62.500,93.750,0.000
1759553085.042,105.469,-59.570,-56.152,92.285,0.000
1759553085.046,66.895,-60.547,-48.828,83.984,0.000
1759553085.050,69.336,-58.594,-50.781,95.703,0.000
1759553085.053,101.074,-57.617,-53.223,96.191,0.000
1759553085.057,98.633,-53.223,-47.363,87.402,0.000
1759553085.061,68.848,-49.316,-42.480,93.262,0.000
1759553085.065,60.059,-56.641,-41.016,92.773,0.000
1759553085.069,88.867,-59.082,-38.086,90.332,0.000
1759553085.073,110.352,-51.758,-36.621,90.332,0.000
1759553085.077,79.590,-46.875,-39.551,90.332,0.000
1759553085.081,61.035,-50.781,-37.598,87.402,0.000
1759553085.085,84.473,-54.688,-39.551,83.496,0.000
1759553085.089,103.516,-50.293,-39.062,84.961,0.000
1759553085.093,81.055,-55.176,-40.039,84.473,0.000
1759553085.096,52.734,-53.711,-41.992,81.543,0.000
1759553085.100,60.547,-41.016,-35.156,68.359,0.000
1759553085.104,86.426,-46.387,-38.574,62.500,0.000
1759553085.108,81.055,-49.805,-41.504,65.430,0.000
1759553085.112,48.828,-49.316,-35.645,64.453,0.000
1759553085.116,49.805,-51.270,-27.832,63.965,0.000
1759553085.120,86.914,-47.852,-35.156,65.918,0.000
1759553085.124,93.750,-48.340,-39.551,66.895,0.000
1759553085.128,49.316,-46.387,-35.645,67.383,0.000
1759553085.132,32.227,-36.621,-32.227,66.406,0.000
1759553085.135,73.730,-36.133,-32.715,59.570,0.000
1759553085.139,91.797,-43.457,-39.062,63.965,0.000
1759553085.143,43.457,-49.805,-32.715,52.246,0.000
1759553085.147,15.137,-46.387,-25.391,36.621,0.000
1759553085.151,44.922,-41.504,-33.203,41.504,0.000
1759553085.155,75.195,-40.039,-42.969,47.852,0.000
1759553085.159,60.059,-32.227,-40.039,47.363,0.000
1759553085.163,31.738,-30.762,-32.227,38.086,0.000
1759553085.167,42.480,-38.086,-37.109,40.039,0.000
1759553085.171,73.730,-34.668,-44.922,45.410,0.000
1759553085.175,58.105,-31.738,-42.480,39.062,0.000
1759553085.178,17.578,-36.133,-41.016,35.156,0.000
1759553085.182,25.879,-45.410,-43.945,46.875,0.000
1759553085.186,58.594,-52.246,-44.434,53.223,0.000
1759553085.190,56.641,-45.410,-39.551,40.527,0.000
1759553085.194,14.160,-44.922,-38.086,31.250,0.000
1759553085.198,-4.883,-46.387,-34.668,27.344,0.000
1759553085.202,27.344,-39.551,-36.621,22.461,0.000
1759553085.206,55.664,-31.250,-39.062,19.531,0.000
1759553085.210,30.762,-27.344,-34.668,23.926,0.000
1759553085.214,9.277,-27.832,-27.832,29.785,0.000
1759553085.218,29.297,-28.320,-24.414,25.391,0.000
1759553085.221,60.059,-30.762,-30.273,26.367,0.000
1759553085.225,41.016,-42.480,-41.992,27.832,0.000
1759553085.229,-0.488,-49.805,-38.086,36.133,0.000
1759553085.233,1.953,-43.457,-30.762,29.297,0.000
1759553085.237,36.621,-35.645,-24.902,18.555,0.000
1759553085.241,39.551,-37.109,-24.414,21.484,0.000
1759553085.245,11.230,-31.738,-21.973,28.320,0.000
1759553085.249,14.160,-25.391,-17.578,33.691,0.000
1759553085.253,38.574,-29.785,-21.484,27.344,0.000
1759553085.257,49.316,-30.762,-22.461,36.621,0.000
1759553085.260,20.020,-36.621,-18.555,36.621,0.000
1759553085.264,0.488,-39.062,-16.602,29.297,0.000
1759553085.268,33.691,-33.691,-25.879,28.320,0.000
1759553085.272,59.082,-41.016,-41.016,38.086,0.000
1759553085.276,34.668,-43.945,-37.598,46.387,0.000
1759553085.280,7.812,-38.574,-23.438,31.738,0.000
1759553085.284,25.879,-35.645,-27.344,25.391,0.000
1759553085.288,60.547,-33.203,-34.668,36.133,0.000
1759553085.292,43.945,-36.621,-37.598,30.762,0.000
1759553085.296,5.859,-39.062,-35.645,26.367,0.000
1759553085.300,11.719,-34.668,-29.297,30.273,0.000
1759553085.303,51.270,-28.809,-29.297,29.785,0.000
1759553085.307,55.664,-25.391,-30.762,30.762,0.000
1759553085.311,12.207,-20.996,-28.320,24.902,0.000
1759553085.315,0.488,-22.949,-28.320,17.090,0.000
1759553085.319,34.180,-29.297,-39.062,15.625,0.000
1759553085.323,44.922,-30.273,-40.527,12.695,0.000
1759553085.327,5.371,-31.738,-31.738,6.348,0.000
1759553085.331,-12.207,-36.621,-36.621,1.953,0.000
1759553085.335,18.066,-33.203,-47.852,4.883,0.000
1759553085.339,40.039,-27.344,-49.805,-2.441,0.000
1759553085.343,13.184,-33.691,-56.641,-13.184,0.000
1759553085.346,-14.160,-32.715,-58.594,-8.301,0.000
1759553085.350,2.930,-29.785,-55.664,-2.441,0.000
1759553085.354,29.297,-32.227,-59.082,-6.348,0.000
1759553085.358,19.043,-29.297,-59.570,-6.348,0.000
1759553085.362,-8.789,-24.902,-52.734,7.324,0.000
1759553085.366,-17.090,-33.203,-56.152,9.766,0.000
1759553085.370,14.160,-33.203,-56.152,10.254,0.000
1759553085.374,26.855,-23.926,-47.363,13.184,0.000
1759553085.378,-3.418,-30.273,-49.805,20.508,0.000
1759553085.382,-13.672,-37.598,-47.852,28.809,0.000
1759553085.385,12.207,-29.297,-41.992,17.090,0.000
1759553085.389,32.227,-24.902,-44.922,12.207,0.000
1759553085.393,3.906,-22.461,-45.410,7.324,0.000
1759553085.397,-22.949,-19.043,-38.574,-2.930,0.000
1759553085.401,-3.418,-14.648,-33.203,-4.395,0.000
1759553085.405,20.020,-18.555,-36.621,-6.348,0.000
1759553085.409,6.348,-27.344,-43.457,-13.184,0.000
1759553085.413,-20.508,-27.344,-40.527,-15.625,0.000
1759553085.417,-16.113,-30.762,-31.738,-16.113,0.000
1759553085.421,17.090,-28.320,-34.180,-8.789,0.000
1759553085.425,16.602,-26.367,-45.898,2.930,0.000
1759553085.428,-24.414,-30.273,-37.598,0.977,0.000
1759553085.432,-25.879,-30.273,-29.297,-6.836,0.000
1759553085.436,9.766,-36.621,-39.551,-3.418,0.000
1759553085.440,15.625,-33.691,-41.504,0.488,0.000
1759553085.444,-19.531,-24.414,-35.156,-3.418,0.000
1759553085.448,-38.574,-27.832,-39.551,-11.719,0.000
1759553085.452,-9.277,-34.180,-48.340,-5.859,0.000
1759553085.456,9.766,-34.180,-53.223,-1.465,0.000
1759553085.460,-18.066,-34.668,-49.316,-6.348,0.000
1759553085.464,-37.598,-27.832,-40.527,-8.789,0.000
1759553085.468,-9.766,-22.461,-44.434,-3.418,0.000
1759553085.471,11.719,-26.367,-51.758,-2.441,0.000
1759553085.475,-13.672,-21.973,-46.875,-14.160,0.000
1759553085.479,-33.203,-25.391,-38.574,-8.789,0.000
1759553085.483,-13.184,-24.414,-31.738,7.812,0.000
1759553085.487,16.602,-18.066,-31.738,9.277,0.000
1759553085.491,10.254,-28.809,-30.762,1.465,0.000
1759553085.495,-24.902,-34.180,-31.250,-1.465,0.000
1759553085.499,-27.344,-32.227,-37.109,-4.395,0.000
1759553085.503,14.648,-36.133,-39.551,-3.418,0.000
1759553085.507,28.809,-35.645,-45.898,-3.906,0.000
1759553085.510,-14.648,-32.227,-47.363,-9.277,0.000
1759553085.514,-32.715,-35.156,-42.969,3.906,0.000
1759553085.518,-0.488,-30.273,-41.016,10.254,0.000
1759553085.522,18.066,-29.297,-44.434,0.000,0.000
1759553085.526,-6.348,-29.297,-42.969,1.953,0.000
1759553085.530,-23.926,-17.578,-31.738,11.230,0.000
1759553085.534,-0.977,-16.602,-30.762,15.137,0.000
1759553085.538,28.320,-20.020,-34.180,11.230,0.000
1759553085.542,20.020,-22.949,-38.574,12.695,0.000
1759553085.546,-15.137,-21.484,-34.668,5.859,0.000
1759553085.550,-14.160,-25.391,-33.203,-0.977,0.000
1759553085.553,14.648,-28.809,-42.969,0.977,0.000
1759553085.557,10.254,-28.320,-54.688,-0.488,0.000
1759553085.561,-17.090,-24.414,-51.758,3.906,0.000
1759553085.565,-25.879,-22.949,-35.156,-5.859,0.000
1759553085.569,7.324,-27.344,-39.551,-12.207,0.000
1759553085.573,28.809,-28.320,-45.898,-3.906,0.000
1759553085.577,-3.906,-27.832,-42.480,-6.348,0.000
1759553085.581,-23.926,-22.461,-41.992,-12.207,0.000
1759553085.585,-0.977,-22.461,-44.434,-9.766,0.000
1759553085.589,24.902,-25.391,-48.340,0.000,0.000
1759553085.593,-1.465,-33.203,-50.781,-2.930,0.000
1759553085.596,-24.902,-33.203,-47.363,-9.277,0.000
1759553085.600,-1.465,-27.344,-50.293,-7.324,0.000
1759553085.604,30.762,-27.344,-62.012,1.465,0.000
1759553085.608,18.066,-18.066,-59.570,3.906,0.000
1759553085.612,-20.020,-11.719,-43.457,-5.859,0.000
1759553085.616,-12.207,-17.578,-41.016,-7.812,0.000
1759553085.620,19.043,-17.090,-48.340,-7.812,0.000
1759553085.624,21.484,-16.113,-53.223,-2.441,0.000
1759553085.628,-12.695,-20.508,-50.293,-7.812,0.000
1759553085.632,-19.043,-18.555,-48.828,-16.602,0.000
1759553085.635,18.555,-17.090,-51.758,-6.836,0.000
1759553085.639,34.180,-17.090,-50.781,-5.371,0.000
1759553085.643,3.906,-13.672,-48.340,-4.883,0.000
1759553085.647,-16.602,-20.020,-53.223,3.906,0.000
1759553085.651,1.953,-22.949,-57.129,5.859,0.000
1759553085.655,26.367,-18.555,-46.387,-0.488,0.000
1759553085.659,10.742,-17.090,-41.504,-1.953,0.000
1759553085.663,-12.695,-18.555,-40.039,4.883,0.000
1759553085.667,7.812,-15.625,-42.480,7.812,0.000
1759553085.671,35.645,-6.348,-49.316,0.977,0.000
1759553085.675,20.020,-7.324,-49.805,-6.348,0.000
1759553085.678,-9.277,-7.324,-45.898,-6.348,0.000
1759553085.682,-7.324,-6.348,-43.457,-9.277,0.000
1759553085.686,15.137,-9.766,-42.969,-13.672,0.000
1759553085.690,18.066,-5.371,-41.992,-7.812,0.000
1759553085.694,-9.766,-12.695,-40.039,-1.465,0.000
1759553085.698,-23.926,-23.438,-35.156,0.977,0.000
1759553085.702,1.465,-18.555,-33.691,0.000,0.000
1759553085.706,29.297,-13.184,-36.133,3.906,0.000
1759553085.710,12.695,-6.836,-37.598,15.137,0.000
1759553085.714,-17.090,-8.789,-33.691,7.324,0.000
1759553085.718,3.418,-18.066,-38.086,7.324,0.000
1759553085.721,34.180,-16.113,-45.898,17.578,0.000
1759553085.725,12.695,-12.695,-40.039,10.742,0.000
1759553085.729,-19.043,-13.672,-30.762,5.371,0.000
1759553085.733,-6.836,-20.020,-31.738,5.371,0.000
1759553085.737,25.879,-20.508,-41.016,5.371,0.000
1759553085.741,23.926,-15.137,-42.969,9.277,0.000
1759553085.745,-19.043,-14.648,-35.156,-1.953,0.000
1759553085.749,-30.273,-20.508,-35.156,-6.348,0.000
1759553085.753,12.695,-22.461,-44.434,13.184,0.000
1759553085.757,27.832,-21.973,-44.922,12.207,0.000
1759553085.760,-12.207,-17.578,-33.203,-5.859,0.000
1759553085.764,-30.273,-13.672,-30.273,-3.906,0.000
1759553085.768,3.906,-16.113,-40.527,6.348,0.000
1759553085.772,30.762,-17.578,-41.992,9.766,0.000
1759553085.776,4.395,-20.508,-31.250,5.371,0.000
1759553085.780,-19.531,-20.508,-25.879,10.742,0.000
1759553085.784,1.465,-19.531,-32.715,10.742,0.000
1759553085.788,26.367,-17.090,-45.410,-3.906,0.000
1759553085.792,1.465,-11.719,-45.898,-13.184,0.000
1759553085.796,-28.809,-9.277,-37.598,-9.277,0.000
1759553085.800,-12.695,-15.625,-47.363,5.371,0.000
1759553085.803,14.648,-19.043,-51.270,-0.488,0.000
1759553085.807,10.742,-20.508,-46.875,-5.859,0.000
1759553085.811,-18.555,-20.996,-51.270,2.441,0.000
1759553085.815,-16.113,-18.555,-49.316,2.441,0.000
1759553085.819,18.555,-21.484,-45.898,0.000,0.000
1759553085.823,22.949,-25.391,-47.852,-4.395,0.000
1759553085.827,-3.418,-27.832,-47.852,-1.953,0.000
1759553085.831,-17.578,-26.855,-48.828,-3.906,0.000
1759553085.835,4.395,-21.484,-54.688,-6.348,0.000
1759553085.839,27.832,-21.973,-52.734,-10.742,0.000
1759553085.843,13.672,-25.391,-58.594,-11.719,0.000
1759553085.846,-5.859,-20.020,-54.199,6.836,0.000
1759553085.850,2.930,-13.672,-40.039,2.930,0.000
1759553085.854,30.762,-22.949,-50.781,-1.953,0.000
1759553085.858,18.066,-30.762,-61.523,-0.488,0.000
1759553085.862,-20.996,-25.391,-49.316,-1.465,0.000
1759553085.866,-10.742,-24.902,-41.992,-0.488,0.000
1759553085.870,31.250,-24.902,-48.828,2.441,0.000
1759553085.874,29.297,-24.414,-45.410,3.906,0.000
1759553085.878,-3.906,-25.391,-35.645,1.465,0.000
1759553085.882,-9.766,-28.809,-30.762,2.441,0.000
1759553085.886,18.066,-25.391,-35.645,7.812,0.000
1759553085.889,39.062,-19.043,-39.551,25.879,0.000
1759553085.893,5.371,-21.973,-36.621,16.602,0.000
1759553085.897,-20.508,-17.578,-30.273,-1.465,0.000
1759553085.901,6.836,-15.625,-31.738,5.371,0.000
1759553085.905,35.645,-19.531,-39.551,11.230,0.000
1759553085.909,11.719,-17.090,-39.062,10.742,0.000
1759553085.913,-23.926,-16.113,-33.203,7.324,0.000
1759553085.917,-12.695,-20.020,-39.551,6.836,0.000
1759553085.921,22.461,-24.902,-42.480,5.859,0.000
1759553085.925,25.879,-29.297,-33.691,7.812,0.000
1759553085.928,-10.742,-22.949,-28.320,3.906,0.000
1759553085.932,-11.230,-24.414,-32.227,10.254,0.000
1759553085.936,17.090,-29.297,-37.598,17.578,0.000
1759553085.940,6.348,-25.391,-35.645,2.930,0.000
1759553085.944,-23.926,-25.391,-32.715,-5.371,0.000
1759553085.948,-27.344,-28.320,-34.180,-2.930,0.000
1759553085.952,0.000,-24.902,-41.016,0.000,0.000
1759553085.956,19.043,-21.484,-41.992,3.418,0.000
1759553085.960,-2.441,-25.879,-40.527,4.395,0.000
1759553085.964,-23.926,-29.785,-39.551,6.348,0.000
1759553085.968,-4.395,-25.879,-39.062,2.441,0.000
1759553085.971,27.832,-23.438,-42.969,-1.953,0.000
1759553085.975,14.648,-22.949,-42.480,5.859,0.000
1759553085.979,-13.184,-23.926,-40.527,13.672,0.000
1759553085.983,-3.906,-16.602,-37.109,9.766,0.000
1759553085.987,25.391,-11.230,-33.691,5.859,0.000
1759553085.991,28.320,-14.160,-40.527,12.207,0.000
1759553085.995,-6.348,-15.625,-42.480,6.348,0.000
1759553085.999,-20.996,-19.531,-38.086,0.488,0.000
1759553086.003,13.184,-23.926,-36.621,3.418,0.000
1759553086.007,20.020,-24.414,-46.875,3.418,0.000
1759553086.011,-23.926,-24.902,-47.363,0.000,0.000
1759553086.014,-37.598,-23.438,-38.574,5.371,0.000
1759553086.018,-5.371,-28.320,-45.410,8.301,0.000
1759553086.022,17.578,-30.762,-55.176,3.418,0.000
1759553086.026,-11.719,-30.762,-55.664,0.977,0.000
1759553086.030,-35.156,-24.414,-39.551,3.906,0.000
1759553086.034,-5.371,-14.160,-38.086,1.953,0.000
1759553086.038,22.461,-16.113,-53.711,0.000,0.000
1759553086.042,4.883,-14.648,-52.246,0.977,0.000
1759553086.046,-26.367,-18.555,-43.457,-4.883,0.000
1759553086.050,-20.508,-22.949,-45.898,-7.324,0.000
1759553086.053,12.207,-20.996,-51.270,-6.348,0.000
1759553086.057,17.578,-27.344,-48.340,-4.883,0.000
1759553086.061,-17.090,-23.926,-41.504,-8.301,0.000
1759553086.065,-26.855,-21.973,-42.480,-8.301,0.000
1759553086.069,10.742,-27.832,-49.805,1.465,0.000
1759553086.073,24.414,-22.949,-48.828,8.789,0.000
1759553086.077,-3.418,-16.113,-38.086,4.883,0.000
1759553086.081,-15.625,-15.625,-34.668,1.953,0.000
1759553086.085,9.277,-19.043,-43.457,3.418,0.000
1759553086.089,30.273,-17.578,-43.457,0.977,0.000
1759553086.093,0.488,-21.484,-41.016,-4.395,0.000
1759553086.096,-32.227,-32.227,-39.551,-3.418,0.000
1759553086.100,-14.648,-29.297,-44.922,-3.418,0.000
1759553086.104,13.672,-30.273,-48.828,-6.348,0.000
1759553086.108,0.000,-36.133,-45.410,-12.207,0.000
1759553086.112,-34.180,-32.715,-52.734,-9.277,0.000
1759553086.116,-25.879,-31.738,-53.223,1.465,0.000
1759553086.120,15.137,-26.367,-48.340,-0.488,0.000
1759553086.124,13.672,-20.996,-45.898,-6.348,0.000
1759553086.128,-22.949,-29.297,-49.805,-4.883,0.000
1759553086.132,-21.973,-29.785,-45.898,3.418,0.000
1759553086.136,8.301,-19.043,-35.156,1.953,0.000
1759553086.139,25.879,-24.414,-34.668,4.395,0.000
1759553086.143,-3.906,-29.785,-37.598,2.930,0.000
1759553086.147,-20.996,-23.926,-36.133,-1.465,0.000
1759553086.151,10.742,-20.508,-33.691,3.906,0.000
1759553086.155,34.180,-22.461,-41.016,6.348,0.000
1759553086.159,12.695,-28.320,-42.969,3.418,0.000
1759553086.163,-10.742,-27.832,-33.203,6.836,0.000
1759553086.167,-1.953,-25.879,-31.250,6.836,0.000
1759553086.171,24.902,-23.438,-38.574,0.977,0.000
1759553086.175,24.414,-21.484,-44.922,10.254,0.000
1759553086.178,-14.160,-20.996,-35.645,7.812,0.000
1759553086.182,-19.043,-21.484,-34.668,-9.277,0.000
1759553086.186,22.949,-23.438,-45.898,-2.930,0.000
1759553086.190,29.785,-22.461,-43.457,4.883,0.000
1759553086.194,-9.766,-17.090,-35.645,-1.465,0.000
1759553086.198,-27.344,-21.973,-35.645,-2.930,0.000
1759553086.202,4.883,-27.344,-39.551,3.418,0.000
1759553086.206,30.273,-17.578,-40.039,4.395,0.000
1759553086.210,-2.930,-14.160,-42.480,-1.465,0.000
1759553086.214,-25.879,-15.625,-43.945,-4.395,0.000
1759553086.218,2.441,-23.926,-53.711,-2.441,0.000
1759553086.221,32.715,-26.367,-56.152,-0.488,0.000
1759553086.225,0.977,-23.438,-48.340,-4.395,0.000
1759553086.229,-34.668,-21.973,-43.945,-6.836,0.000
1759553086.233,-17.578,-27.832,-53.711,-4.395,0.000
1759553086.237,17.090,-32.227,-61.523,-6.836,0.000
1759553086.241,10.254,-28.809,-49.805,-13.672,0.000
1759553086.245,-20.508,-28.320,-42.969,-9.766,0.000
1759553086.249,-12.207,-22.461,-40.039,-5.371,0.000
1759553086.253,15.625,-20.508,-38.086,-3.906,0.000
1759553086.257,13.672,-23.926,-42.969,-0.977,0.000
1759553086.261,-16.602,-18.555,-44.434,-3.418,0.000
1759553086.264,-22.949,-22.949,-45.898,1.465,0.000
1759553086.268,5.371,-25.879,-44.922,1.465,0.000
1759553086.272,19.043,-22.949,-39.551,-10.254,0.000
1759553086.276,-5.371,-23.438,-41.016,-9.766,0.000
1759553086.280,-26.367,-21.484,-43.945,-9.766,0.000
1759553086.284,-10.742,-26.855,-46.387,-17.090,0.000
1759553086.288,21.973,-24.902,-45.410,-15.625,0.000
1759553086.292,7.324,-20.020,-43.945,-7.324,0.000
1759553086.296,-34.180,-30.273,-37.109,-5.371,0.000
1759553086.300,-27.344,-36.621,-34.668,-9.766,0.000
1759553086.303,6.836,-33.203,-42.969,-7.324,0.000
1759553086.307,8.301,-32.227,-43.945,0.000,0.000
1759553086.311,-24.414,-33.203,-37.109,0.488,0.000
1759553086.315,-30.273,-28.320,-30.273,-3.906,0.000
1759553086.319,5.371,-25.879,-31.250,-2.441,0.000
1759553086.323,13.672,-30.762,-37.109,3.418,0.000
1759553086.327,-17.578,-32.227,-33.691,3.418,0.000
1759553086.331,-27.832,-27.832,-20.020,-0.488,0.000
1759553086.335,4.883,-24.414,-23.438,-1.953,0.000
1759553086.339,31.738,-20.996,-29.785,-2.930,0.000
1759553086.343,12.207,-24.414,-22.949,-0.977,0.000
1759553086.346,-15.625,-27.344,-13.672,5.859,0.000
1759553086.350,3.418,-20.996,-17.578,9.766,0.000
1759553086.354,32.715,-25.879,-34.180,15.625,0.000
1759553086.358,17.090,-26.367,-33.203,15.625,0.000
1759553086.362,-14.648,-19.531,-19.531,-0.977,0.000
1759553086.366,-9.766,-26.367,-24.902,-0.488,0.000
1759553086.370,22.461,-25.879,-31.738,6.836,0.000
1759553086.374,29.785,-27.832,-29.297,4.395,0.000
1759553086.378,-2.930,-26.367,-24.902,0.977,0.000
1759553086.382,-11.719,-21.484,-23.926,4.395,0.000
1759553086.386,19.043,-21.484,-25.879,1.953,0.000
1759553086.389,31.250,-16.602,-24.414,1.953,0.000
1759553086.393,2.930,-16.602,-17.090,7.324,0.000
1759553086.397,-15.625,-17.578,-15.625,15.137,0.000
1759553086.401,12.207,-18.555,-21.484,16.602,0.000
1759553086.405,36.133,-18.555,-21.484,6.348,0.000
1759553086.409,11.230,-18.066,-20.508,3.906,0.000
1759553086.413,-17.090,-28.809,-20.020,6.348,0.000
1759553086.417,-5.371,-28.809,-20.020,2.441,0.000
1759553086.421,23.926,-16.602,-20.020,0.488,0.000
1759553086.425,17.090,-19.043,-20.020,2.930,0.000
1759553086.428,-18.555,-25.391,-22.461,-1.465,0.000
1759553086.432,-18.066,-23.926,-24.414,-4.395,0.000
1759553086.436,14.160,-26.367,-25.391,-7.324,0.000
1759553086.440,21.484,-29.297,-31.250,-9.766,0.000
1759553086.444,-8.301,-29.297,-28.809,-3.906,0.000
1759553086.448,-21.484,-22.461,-18.555,-6.836,0.000
1759553086.452,13.672,-14.160,-14.160,-11.719,0.000
1759553086.456,38.086,-16.602,-22.461,-3.906,0.000
1759553086.460,2.441,-19.531,-26.367,0.488,0.000
1759553086.464,-20.508,-14.160,-13.672,-2.930,0.000
1759553086.468,9.277,-16.113,-13.672,5.371,0.000
1759553086.471,40.527,-18.066,-20.996,10.254,0.000
1759553086.475,19.043,-18.555,-16.602,4.883,0.000
1759553086.479,-17.090,-21.973,-10.254,2.441,0.000
1759553086.483,-3.906,-20.020,-7.324,3.418,0.000
1759553086.487,32.227,-20.508,-14.160,7.812,0.000
1759553086.491,24.902,-27.344,-25.391,10.254,0.000
1759553086.495,-16.602,-28.809,-19.531,3.418,0.000
1759553086.499,-20.996,-26.367,-18.555,-7.812,0.000
1759553086.503,15.137,-26.367,-30.762,-5.371,0.000
1759553086.507,20.020,-29.297,-34.668,0.000,0.000
1759553086.511,-16.602,-24.902,-18.555,-5.371,0.000
1759553086.514,-27.344,-22.949,-14.648,-5.371,0.000
1759553086.518,4.883,-26.367,-27.832,-5.371,0.000
1759553086.522,19.043,-26.367,-30.762,-8.789,0.000
1759553086.526,-12.207,-26.367,-23.926,-8.789,0.000
1759553086.530,-32.715,-27.344,-23.926,-8.301,0.000
1759553086.534,-12.207,-31.250,-29.785,-13.184,0.000
1759553086.538,13.184,-37.109,-34.668,-17.578,0.000
1759553086.542,-9.277,-33.691,-35.156,-17.578,0.000
1759553086.546,-39.062,-26.855,-27.344,-20.020,0.000
1759553086.550,-23.438,-33.203,-34.180,-8.301,0.000
1759553086.553,11.719,-29.297,-37.109,0.488,0.000
1759553086.557,9.277,-24.902,-24.902,-10.742,0.000
1759553086.561,-26.367,-28.320,-24.414,-10.254,0.000
1759553086.565,-35.156,-29.297,-27.832,-7.324,0.000
1759553086.569,-0.488,-30.762,-28.320,-5.371,0.000
1759553086.573,17.578,-30.273,-33.691,-3.418,0.000
1759553086.577,-15.625,-25.391,-33.203,-8.789,0.000
1759553086.581,-22.949,-22.949,-25.391,-3.418,0.000
1759553086.585,10.742,-24.414,-30.762,4.395,0.000
1759553086.589,36.133,-20.020,-33.691,5.859,0.000
1759553086.593,14.648,-21.973,-33.691,14.160,0.000
1759553086.596,-19.043,-25.391,-35.645,12.207,0.000
1759553086.600,-11.230,-18.066,-29.785,-3.906,0.000
1759553086.604,20.996,-22.461,-32.227,-1.953,0.000
1759553086.608,12.695,-23.926,-35.156,7.324,0.000
1759553086.612,-18.066,-15.625,-26.367,6.836,0.000
1759553086.616,-13.184,-13.184,-21.973,0.977,0.000
1759553086.620,19.531,-13.672,-32.227,-0.488,0.000
1759553086.624,19.043,-20.996,-39.551,-4.883,0.000
1759553086.628,-22.461,-27.344,-36.133,-15.137,0.000
1759553086.632,-29.297,-22.461,-32.715,-10.254,0.000
1759553086.636,10.742,-20.020,-33.203,1.953,0.000
1759553086.639,34.180,-20.508,-40.039,12.695,0.000
1759553086.643,-1.465,-14.648,-34.668,9.766,0.000
1759553086.647,-38.574,-11.719,-28.320,-16.602,0.000
1759553086.651,-10.254,-7.812,-22.949,-13.184,0.000
1759553086.655,23.438,-1.465,-22.461,4.883,0.000
1759553086.659,-5.371,-17.578,-34.180,-0.488,0.000
1759553086.663,-37.598,-20.020,-31.738,-8.789,0.000
1759553086.667,-27.832,-18.066,-30.762,-21.973,0.000
1759553086.671,-2.930,0.977,-10.254,-29.785,0.000
1759553086.675,-1.953,25.879,8.301,-19.043,0.000
1759553086.678,-41.016,7.812,-34.180,-27.832,0.000
1759553086.682,-64.453,-15.625,-55.176,-42.480,0.000
1759553086.686,-47.852,-4.395,-22.949,-48.828,0.000
1759553086.690,-64.453,19.531,-20.508,-84.961,0.000
1759553086.694,-125.000,11.230,-38.086,-120.605,0.000
1759553086.698,-151.367,11.719,-41.016,-128.418,0.000
1759553086.702,-141.602,28.809,-25.391,-142.090,0.000
1759553086.706,-142.578,38.086,-13.184,-163.086,0.000
1759553086.710,-178.223,35.156,-22.461,-173.828,0.000
1759553086.714,-206.055,39.551,-21.484,-179.199,0.000
1759553086.718,-195.801,48.340,-12.207,-191.895,0.000
1759553086.721,-177.734,56.641,-6.348,-206.055,0.000
1759553086.725,-197.266,54.688,-1.953,-208.496,0.000
1759553086.729,-227.539,50.781,-1.953,-193.848,0.000
1759553086.733,-205.566,52.734,0.488,-184.570,0.000
1759553086.737,-165.527,55.664,4.395,-192.383,0.000
1759553086.741,-154.297,52.734,-7.812,-179.199,0.000
1759553086.745,-170.898,48.828,-13.184,-164.551,0.000
1759553086.749,-169.434,43.945,-10.742,-160.156,0.000
1759553086.753,-125.000,33.691,-19.043,-147.461,0.000
1759553086.757,-101.562,25.391,-23.926,-129.883,0.000
1759553086.761,-121.094,27.832,-14.648,-121.094,0.000
1759553086.764,-125.488,36.621,1.465,-109.863,0.000
1759553086.768,-97.168,25.391,-5.371,-97.656,0.000
1759553086.772,-78.125,13.184,-29.785,-92.285,0.000
1759553086.776,-99.609,16.113,-32.715,-87.402,0.000
1759553086.780,-108.398,14.160,-18.555,-79.102,0.000
1759553086.784,-61.035,11.719,-27.344,-60.547,0.000
1759553086.788,-24.902,9.277,-38.574,-50.293,0.000
1759553086.792,-41.992,-3.906,-39.551,-51.758,0.000
1759553086.796,-52.246,-6.348,-33.691,-33.691,0.000
1759553086.800,-22.461,-6.836,-29.785,-6.348,0.000
1759553086.803,15.137,-15.137,-38.086,2.930,0.000
1759553086.807,22.461,-20.508,-41.504,14.648,0.000
1759553086.811,6.348,-24.902,-37.109,28.320,0.000
1759553086.815,11.719,-28.809,-41.992,38.086,0.000
1759553086.819,48.340,-28.809,-50.293,48.340,0.000
1759553086.823,62.012,-30.273,-51.270,55.176,0.000
1759553086.827,30.762,-41.504,-49.316,53.223,0.000
1759553086.831,20.996,-50.781,-44.434,59.082,0.000
1759553086.835,56.152,-58.105,-47.363,79.590,0.000
1759553086.839,74.707,-58.105,-50.293,81.543,0.000
1759553086.843,60.547,-55.664,-48.340,70.312,0.000
1759553086.846,49.316,-56.641,-45.410,71.289,0.000
1759553086.850,66.895,-53.711,-43.457,74.707,0.000
1759553086.854,98.633,-52.246,-42.969,78.613,0.000
1759553086.858,91.309,-56.152,-41.016,85.938,0.000
1759553086.862,60.059,-59.082,-40.039,86.914,0.000
1759553086.866,71.289,-56.641,-39.551,92.773,0.000
1759553086.870,100.586,-55.664,-38.086,96.191,0.000
1759553086.874,92.773,-55.664,-39.551,82.520,0.000
1759553086.878,62.500,-56.641,-42.969,87.402,0.000
1759553086.882,62.012,-56.641,-38.574,97.168,0.000
1759553086.886,87.891,-48.340,-29.297,84.473,0.000
1759553086.889,101.074,-44.922,-36.621,82.031,0.000
1759553086.893,73.730,-43.945,-41.504,89.355,0.000
1759553086.897,56.641,-48.340,-35.645,92.773,0.000
1759553086.901,74.219,-57.129,-38.086,77.637,0.000
1759553086.905,90.820,-51.758,-52.734,62.988,0.000
1759553086.909,72.266,-51.758,-56.641,67.871,0.000
1759553086.913,42.969,-53.711,-48.828,71.777,0.000
1759553086.917,60.547,-48.828,-47.852,72.266,0.000
1759553086.921,97.656,-47.363,-45.410,70.801,0.000
1759553086.925,93.262,-47.363,-48.340,79.102,0.000
1759553086.928,59.082,-46.875,-43.945,74.219,0.000
1759553086.932,50.781,-38.574,-28.809,65.430,0.000
1759553086.936,76.172,-39.062,-34.180,70.312,0.000
1759553086.940,77.637,-42.480,-38.086,62.012,0.000
1759553086.944,43.457,-38.574,-37.109,51.758,0.000
1759553086.948,35.645,-36.621,-32.715,57.617,0.000
1759553086.952,67.383,-36.133,-36.621,62.500,0.000
1759553086.956,79.590,-44.434,-43.457,56.641,0.000
1759553086.960,43.457,-46.387,-35.156,48.828,0.000
1759553086.964,18.066,-42.480,-29.785,42.480,0.000
1759553086.968,48.828,-41.992,-36.621,52.246,0.000
1759553086.971,80.078,-45.898,-45.410,64.453,0.000
1759553086.975,52.246,-44.434,-36.133,48.828,0.000
1759553086.979,26.367,-39.551,-24.414,42.480,0.000
1759553086.983,44.922,-35.645,-29.297,43.945,0.000
1759553086.987,70.312,-33.691,-36.133,43.457,0.000
1759553086.991,52.734,-31.738,-32.227,45.898,0.000
1759553086.995,20.996,-31.738,-25.879,44.922,0.000
1759553086.999,26.855,-35.645,-25.879,39.062,0.000
1759553087.003,59.082,-33.203,-30.762,42.969,0.000
1759553087.007,62.500,-34.668,-36.621,50.781,0.000
1759553087.011,20.996,-35.645,-39.062,41.504,0.000
1759553087.014,7.324,-32.227,-41.504,50.293,0.000
1759553087.018,28.809,-32.227,-44.922,43.945,0.000
1759553087.022,39.062,-38.574,-47.363,17.090,0.000
1759553087.026,11.230,-42.480,-45.898,15.137,0.000
1759553087.030,-9.766,-41.016,-42.480,18.066,0.000
1759553087.034,18.066,-38.086,-47.363,17.090,0.000
1759553087.038,47.363,-32.227,-55.664,12.207,0.000
1759553087.042,21.973,-28.320,-58.105,14.160,0.000
1759553087.046,-13.672,-34.668,-48.828,17.578,0.000
1759553087.050,-2.441,-40.039,-44.922,13.184,0.000
1759553087.053,31.738,-39.062,-50.293,16.113,0.000
1759553087.057,34.668,-43.945,-53.711,25.391,0.000
1759553087.061,2.441,-45.898,-50.781,27.344,0.000
1759553087.065,-2.441,-38.574,-38.086,12.695,0.000
1759553087.069,37.109,-33.203,-42.480,12.695,0.000
1759553087.073,44.922,-35.645,-48.828,17.578,0.000
1759553087.077,5.859,-37.109,-37.109,19.531,0.000
1759553087.081,-6.836,-32.227,-27.832,20.996,0.000
1759553087.085,23.438,-31.250,-32.227,16.602,0.000
1759553087.089,41.016,-33.691,-35.645,16.602,0.000
1759553087.093,6.836,-40.039,-29.785,12.695,0.000
1759553087.096,-18.066,-38.086,-16.113,14.160,0.000
1759553087.100,4.395,-38.574,-14.648,13.672,0.000
1759553087.104,37.598,-42.969,-24.902,23.926,0.000
1759553087.108,20.996,-38.086,-16.602,27.344,0.000
1759553087.112,-14.648,-35.156,-7.324,10.742,0.000
1759553087.116,-1.465,-29.785,-17.090,10.742,0.000
1759553087.120,23.438,-29.785,-25.391,13.184,0.000
1759553087.124,24.902,-31.250,-25.391,14.160,0.000
1759553087.128,-4.883,-26.855,-25.391,14.160,0.000
1759553087.132,-8.789,-18.555,-24.414,20.508,0.000
1759553087.136,26.367,-19.043,-30.762,18.066,0.000
1759553087.139,36.133,-29.297,-38.574,14.648,0.000
1759553087.143,8.789,-25.391,-36.621,16.113,0.000
1759553087.147,-6.348,-20.996,-38.574,20.996,0.000
1759553087.151,21.484,-23.438,-41.504,23.926,0.000
1759553087.155,42.969,-18.555,-29.785,15.625,0.000
1759553087.159,15.137,-13.672,-25.391,13.672,0.000
1759553087.163,-4.395,-11.719,-33.691,15.625,0.000
1759553087.167,10.742,-13.672,-38.574,16.602,0.000
1759553087.171,34.668,-15.137,-40.527,13.184,0.000
1759553087.175,27.832,-17.578,-41.504,13.184,0.000
1759553087.179,-9.766,-20.996,-39.062,11.719,0.000
1759553087.182,-9.766,-20.020,-36.621,10.254,0.000
1759553087.186,32.227,-18.066,-36.621,11.719,0.000
1759553087.190,36.133,-17.090,-32.715,12.695,0.000
1759553087.194,-5.371,-27.832,-34.668,13.184,0.000
1759553087.198,-15.137,-32.227,-33.203,15.625,0.000
1759553087.202,15.137,-23.926,-31.738,12.695,0.000
1759553087.206,31.250,-25.879,-35.156,6.348,0.000
1759553087.210,6.348,-29.297,-36.133,8.301,0.000
1759553087.214,-6.348,-19.531,-32.715,12.695,0.000
1759553087.218,27.344,-20.020,-32.715,20.020,0.000
1759553087.221,38.086,-34.180,-32.715,13.672,0.000
1759553087.225,3.906,-33.203,-23.926,-3.906,0.000
1759553087.229,-34.180,-23.926,-15.137,-16.113,0.000
1759553087.233,-27.832,-25.391,-18.555,-21.484,0.000
1759553087.237,16.113,-31.250,-29.785,-10.254,0.000
1759553087.241,16.602,-32.227,-33.691,0.488,0.000
1759553087.245,-18.555,-32.227,-29.297,4.883,0.000
1759553087.249,-21.484,-29.785,-25.391,-0.977,0.000
1759553087.253,17.578,-28.809,-40.039,1.953,0.000
1759553087.257,28.320,-26.855,-45.898,20.508,0.000
1759553087.261,-7.324,-19.043,-25.879,14.648,0.000
1759553087.264,-13.672,-13.184,-24.902,6.348,0.000
1759553087.268,22.461,-18.555,-32.227,8.301,0.000
1759553087.272,38.086,-20.508,-35.156,7.324,0.000
1759553087.276,5.371,-16.602,-35.645,5.371,0.000
1759553087.280,-17.578,-31.250,-32.715,-0.977,0.000
1759553087.284,2.441,-36.621,-42.969,-3.906,0.000
1759553087.288,33.203,-27.344,-50.293,0.000,0.000
1759553087.292,9.277,-25.391,-41.504,-0.488,0.000
1759553087.296,-28.320,-23.926,-38.086,-6.348,0.000
1759553087.300,-13.184,-24.902,-48.340,-1.953,0.000
1759553087.303,20.020,-26.855,-48.828,3.906,0.000
1759553087.307,14.648,-27.832,-41.992,-1.465,0.000
1759553087.311,-13.184,-26.367,-47.363,-4.883,0.000
1759553087.315,-12.695,-23.926,-51.270,-9.277,0.000
1759553087.319,20.508,-21.973,-47.852,-8.301,0.000
1759553087.323,30.273,-22.461,-51.758,-2.930,0.000
1759553087.327,-2.441,-22.461,-51.758,-2.441,0.000
1759553087.331,-12.207,-23.926,-37.598,2.441,0.000
1759553087.335,11.719,-27.832,-39.062,2.930,0.000
1759553087.339,27.344,-22.461,-41.016,-5.859,0.000
1759553087.343,5.371,-20.508,-38.574,-3.418,0.000
1759553087.346,-22.949,-21.973,-36.133,2.930,0.000
1759553087.350,-5.859,-14.648,-28.320,-5.371,0.000
1759553087.354,28.809,-16.602,-31.250,-5.371,0.000
1759553087.358,13.184,-18.555,-32.227,-3.418,0.000
1759553087.362,-22.949,-15.625,-26.855,-9.766,0.000
1759553087.366,-15.625,-16.602,-28.809,-11.230,0.000
1759553087.370,22.949,-20.996,-37.598,-8.301,0.000
1759553087.374,19.043,-23.926,-38.574,-9.766,0.000
1759553087.378,-20.508,-25.391,-32.227,-17.578,0.000
1759553087.382,-22.461,-25.879,-31.250,-15.625,0.000
1759553087.386,9.277,-26.855,-40.527,-12.695,0.000
1759553087.389,19.531,-31.250,-51.758,-3.906,0.000
1759553087.393,-13.184,-30.273,-42.480,-4.883,0.000
1759553087.397,-28.320,-24.902,-25.879,-14.160,0.000
1759553087.401,5.371,-25.391,-29.297,-7.812,0.000
1759553087.405,29.785,-27.832,-37.598,-0.977,0.000
1759553087.409,-2.441,-31.738,-36.133,-8.301,0.000
1759553087.413,-31.738,-31.738,-28.320,-10.254,0.000
1759553087.417,-11.719,-29.785,-28.320,-5.859,0.000
1759553087.421,19.043,-26.855,-31.250,0.000,0.000
1759553087.425,9.766,-23.926,-26.855,7.324,0.000
1759553087.429,-24.902,-30.273,-24.902,3.906,0.000
1759553087.432,-26.367,-34.180,-30.762,1.465,0.000
1759553087.436,5.859,-28.320,-34.668,5.859,0.000
1759553087.440,9.277,-23.926,-23.438,-0.977,0.000
1759553087.444,-25.879,-34.180,-25.391,-5.859,0.000
1759553087.448,-29.297,-33.691,-28.809,-4.883,0.000
1759553087.452,10.742,-27.344,-19.531,-3.418,0.000
1759553087.456,24.902,-25.391,-18.555,-1.465,0.000
1759553087.460,-12.207,-26.367,-20.996,-4.395,0.000
1759553087.464,-36.621,-25.391,-25.391,-5.859,0.000
1759553087.468,-12.207,-24.414,-34.180,-1.953,0.000
1759553087.471,16.602,-24.414,-38.574,1.953,0.000
1759553087.475,-4.395,-25.879,-41.992,-4.883,0.000
1759553087.479,-25.879,-23.438,-38.574,0.000,0.000
1759553087.483,-16.113,-13.184,-30.762,-6.348,0.000
1759553087.487,5.371,-17.090,-34.180,-20.508,0.000
1759553087.491,3.418,-25.391,-36.133,-5.371,0.000
1759553087.495,-27.832,-20.508,-26.367,0.000,0.000
1759553087.499,-20.508,-21.484,-24.902,-3.418,0.000
1759553087.503,12.207,-21.484,-29.785,-3.906,0.000
1759553087.507,11.230,-22.949,-33.203,-3.418,0.000
1759553087.511,-19.043,-20.996,-34.668,-2.930,0.000
1759553087.514,-29.297,-14.160,-29.785,-7.324,0.000
1759553087.518,-1.465,-16.602,-35.156,-9.277,0.000
1759553087.522,19.043,-21.484,-45.898,-1.953,0.000
1759553087.526,-2.930,-25.391,-46.387,6.348,0.000
1759553087.530,-30.273,-26.367,-38.574,-9.766,0.000
1759553087.534,-19.531,-25.391,-40.039,-23.926,0.000
1759553087.538,17.578,-24.414,-50.293,-12.695,0.000
1759553087.542,5.859,-20.508,-53.711,-10.742,0.000
1759553087.546,-25.879,-13.672,-42.969,-12.695,0.000
1759553087.550,-7.812,-20.020,-38.574,-9.766,0.000
1759553087.554,22.461,-25.391,-50.781,-7.812,0.000
1759553087.557,16.113,-23.438,-53.711,-10.254,0.000
1759553087.561,-20.996,-23.926,-43.945,-12.207,0.000
1759553087.565,-25.391,-19.043,-37.109,-5.371,0.000
1759553087.569,11.719,-22.949,-50.781,0.977,0.000
1759553087.573,23.438,-24.902,-53.711,1.953,0.000
1759553087.577,-4.395,-18.555,-39.551,-1.465,0.000
1759553087.581,-12.207,-18.066,-38.086,2.930,0.000
1759553087.585,14.160,-16.602,-46.387,10.254,0.000
1759553087.589,29.297,-13.184,-48.340,5.859,0.000
1759553087.593,-0.977,-17.578,-45.410,5.371,0.000
1759553087.596,-29.785,-18.066,-44.922,2.441,0.000
1759553087.600,-11.719,-19.531,-46.387,-4.883,0.000
1759553087.604,21.973,-20.508,-47.852,-2.930,0.000
1759553087.608,11.230,-15.625,-43.457,-2.441,0.000
1759553087.612,-24.902,-19.531,-39.551,-6.348,0.000
1759553087.616,-17.578,-29.785,-41.504,-7.324,0.000
1759553087.620,17.578,-25.391,-34.668,-4.883,0.000
1759553087.624,9.766,-19.043,-28.320,-10.742,0.000
1759553087.628,-22.949,-28.809,-30.273,-1.465,0.000
1759553087.632,-27.344,-30.762,-29.297,8.301,0.000
1759553087.636,-2.930,-20.020,-27.832,-5.859,0.000
1759553087.639,17.090,-17.578,-33.203,-2.930,0.000
1759553087.643,-1.953,-13.672,-32.715,10.254,0.000
1759553087.647,-15.137,-14.160,-21.973,11.230,0.000
1759553087.651,10.742,-15.625,-21.484,6.836,0.000
1759553087.655,31.250,-19.043,-35.156,3.418,0.000
1759553087.659,3.418,-24.414,-40.039,0.977,0.000
1759553087.663,-31.250,-21.973,-38.574,-1.953,0.000
1759553087.667,-17.578,-20.508,-40.039,-2.441,0.000
1759553087.671,20.508,-23.926,-41.016,4.395,0.000
1759553087.675,9.277,-28.809,-46.387,4.883,0.000
1759553087.679,-23.926,-22.461,-45.410,0.000,0.000
1759553087.682,-13.184,-10.254,-41.504,4.883,0.000
1759553087.686,23.438,-18.555,-48.340,9.277,0.000
1759553087.690,26.855,-27.344,-57.617,17.090,0.000
1759553087.694,-10.742,-22.949,-42.480,9.277,0.000
1759553087.698,-17.090,-19.043,-31.250,-0.488,0.000
1759553087.702,17.090,-21.484,-41.992,4.395,0.000
1759553087.706,28.320,-22.949,-50.293,2.930,0.000
1759553087.710,-3.418,-21.973,-48.828,-0.977,0.000
1759553087.714,-24.902,-20.508,-35.645,-3.418,0.000
1759553087.718,4.395,-22.461,-41.992,0.000,0.000
1759553087.721,30.762,-26.367,-51.270,6.348,0.000
1759553087.725,-2.930,-23.438,-39.551,-6.348,0.000
1759553087.729,-34.180,-21.973,-37.109,-7.812,0.000
1759553087.733,-18.066,-28.809,-44.434,-3.906,0.000
1759553087.737,20.996,-33.203,-45.898,-9.277,0.000
1759553087.741,15.137,-28.320,-39.551,-2.441,0.000
1759553087.745,-20.996,-25.879,-37.109,1.953,0.000
1759553087.749,-18.066,-24.902,-38.574,1.465,0.000
1759553087.753,15.625,-19.531,-41.504,-2.441,0.000
1759553087.757,23.926,-16.602,-41.992,-6.836,0.000
1759553087.761,-6.348,-19.043,-41.016,-7.324,0.000
1759553087.764,-13.672,-26.855,-43.457,4.883,0.000
1759553087.768,11.719,-30.762,-41.016,-0.977,0.000
1759553087.772,21.484,-26.367,-32.715,-14.648,0.000
1759553087.776,-4.883,-26.855,-36.133,-4.395,0.000
1759553087.780,-22.949,-27.832,-38.574,-0.488,0.000
1759553087.784,3.418,-20.508,-30.762,1.953,0.000
1759553087.788,36.133,-19.531,-31.738,10.254,0.000
1759553087.792,14.160,-29.297,-41.504,9.277,0.000
1759553087.796,-21.484,-26.855,-37.598,5.371,0.000
1759553087.800,-8.301,-17.090,-28.809,0.488,0.000
1759553087.804,29.297,-20.020,-31.738,3.906,0.000
1759553087.807,28.809,-24.902,-32.715,20.508,0.000
1759553087.811,-2.930,-20.020,-27.832,22.949,0.000
1759553087.815,-12.695,-14.648,-22.949,3.906,0.000
1759553087.819,13.184,-13.184,-26.855,-4.395,0.000
1759553087.823,25.391,-13.672,-34.180,4.395,0.000
1759553087.827,-6.348,-13.672,-36.133,2.930,0.000
1759553087.831,-21.973,-13.672,-28.809,2.441,0.000
1759553087.835,6.348,-16.602,-26.855,9.277,0.000
1759553087.839,29.297,-25.879,-35.156,7.812,0.000
1759553087.843,1.465,-26.367,-36.133,0.488,0.000
1759553087.846,-27.344,-24.902,-35.156,-4.883,0.000
1759553087.850,-7.324,-37.598,-43.457,-9.766,0.000
1759553087.854,24.414,-39.062,-49.805,-3.906,0.000
1759553087.858,10.742,-34.668,-44.922,-0.977,0.000
1759553087.862,-19.531,-29.785,-33.203,-4.395,0.000
1759553087.866,-9.766,-22.949,-36.621,3.418,0.000
1759553087.870,26.367,-25.879,-43.945,2.441,0.000
1759553087.874,29.785,-30.762,-41.992,-1.465,0.000
1759553087.878,-17.578,-21.973,-37.598,-9.277,0.000
1759553087.882,-22.949,-15.137,-33.203,-0.488,0.000
1759553087.886,21.973,-17.090,-28.809,12.695,0.000
1759553087.889,31.250,-19.043,-30.273,1.953,0.000
1759553087.893,-2.441,-23.438,-22.949,-2.930,0.000
1759553087.897,-11.230,-24.902,-18.066,6.836,0.000
1759553087.901,24.414,-17.578,-35.645,8.789,0.000
1759553087.905,35.156,-14.160,-27.344,1.953,0.000
1759553087.909,-16.602,-13.672,-11.230,-12.207,0.000
1759553087.913,-41.504,-9.766,-11.719,-7.812,0.000
1759553087.917,-32.227,-10.742,-8.789,-19.531,0.000
1759553087.921,-23.926,-13.672,-12.695,-41.992,0.000
1759553087.925,-39.551,-13.672,-25.879,-44.434,0.000
1759553087.929,-86.914,-2.930,-26.855,-64.453,0.000
1759553087.932,-98.633,0.977,-16.113,-88.867,0.000
1759553087.936,-75.684,9.277,-9.766,-101.562,0.000
1759553087.940,-92.285,11.719,-13.672,-107.422,0.000
1759553087.944,-142.090,3.906,-4.395,-120.605,0.000
1759553087.948,-157.227,11.719,3.418,-139.648,0.000
1759553087.952,-134.277,24.414,-7.812,-148.438,0.000
1759553087.956,-120.117,25.391,-1.465,-139.160,0.000
1759553087.960,-159.668,7.324,-13.184,-148.438,0.000
1759553087.964,-195.801,-0.488,-7.812,-168.945,0.000
1759553087.968,-175.293,12.207,20.508,-180.664,0.000
1759553087.972,-156.250,24.902,19.043,-187.988,0.000
1759553087.975,-190.918,29.785,6.836,-201.660,0.000
1759553087.979,-217.285,27.344,27.832,-196.289,0.000
1759553087.983,-211.426,23.926,24.902,-206.543,0.000
1759553087.987,-193.359,38.086,-1.465,-227.051,0.000
1759553087.991,-204.590,46.875,-13.672,-225.098,0.000
1759553087.995,-239.258,51.270,-13.672,-225.098,0.000
1759553087.999,-240.723,64.941,-10.254,-237.793,0.000
1759553088.003,-206.543,72.754,-23.438,-231.445,0.000
1759553088.007,-187.500,68.359,-25.879,-206.543,0.000
1759553088.011,-215.820,72.754,-16.602,-206.543,0.000
1759553088.014,-227.051,69.824,-16.602,-208.496,0.000
1759553088.018,-176.270,59.570,-20.508,-194.336,0.000
1759553088.022,-130.371,61.035,-19.531,-172.852,0.000
1759553088.026,-152.344,56.641,-10.254,-158.691,0.000
1759553088.030,-162.109,44.434,-2.441,-141.602,0.000
1759553088.034,-122.559,35.156,-7.324,-119.629,0.000
1759553088.038,-88.379,19.531,-16.113,-104.004,0.000
1759553088.042,-84.961,16.113,-10.742,-83.984,0.000
1759553088.046,-89.355,12.695,-4.395,-66.895,0.000
1759553088.050,-64.453,-6.348,-16.113,-46.875,0.000
1759553088.054,-17.578,-6.836,-20.996,-31.250,0.000
1759553088.057,-6.836,-9.277,-18.555,-21.484,0.000
1759553088.061,-26.855,-25.879,-30.762,-9.766,0.000
1759553088.065,-9.277,-29.785,-28.320,5.371,0.000
1759553088.069,39.551,-30.762,-24.414,16.602,0.000
1759553088.073,56.152,-36.621,-30.762,27.832,0.000
1759553088.077,37.109,-47.363,-37.598,42.969,0.000
1759553088.081,32.715,-54.199,-43.945,55.664,0.000
1759553088.085,68.359,-55.664,-48.828,64.453,0.000
1759553088.089,88.379,-57.617,-53.711,70.312,0.000
1759553088.093,60.547,-65.430,-64.453,76.172,0.000
1759553088.096,50.781,-66.406,-68.848,89.355,0.000
1759553088.100,74.219,-66.895,-57.129,92.773,0.000
1759553088.104,104.004,-67.871,-52.246,95.215,0.000
1759553088.108,98.633,-63.965,-50.781,101.562,0.000
1759553088.112,70.801,-73.730,-42.969,98.145,0.000
1759553088.116,79.102,-80.078,-41.016,95.703,0.000
1759553088.120,120.117,-74.707,-49.316,106.445,0.000
1759553088.124,116.211,-70.801,-51.758,110.352,0.000
1759553088.128,75.195,-63.477,-42.480,102.539,0.000
1759553088.132,77.637,-62.988,-40.527,100.098,0.000
1759553088.136,117.188,-64.941,-48.340,102.051,0.000
1759553088.139,129.883,-66.406,-53.223,109.863,0.000
1759553088.143,94.727,-62.988,-47.363,105.957,0.000
1759553088.147,72.266,-53.223,-36.133,96.680,0.000
1759553088.151,101.074,-59.570,-41.016,97.168,0.000
1759553088.155,123.047,-75.195,-48.828,92.773,0.000
1759553088.159,91.309,-74.219,-54.688,83.496,0.000
1759553088.163,62.012,-64.453,-56.641,80.566,0.000
1759553088.167,79.102,-58.594,-64.941,79.102,0.000
1759553088.171,113.770,-58.594,-69.336,84.473,0.000
1759553088.175,97.168,-59.082,-66.406,84.961,0.000
1759553088.179,60.059,-59.082,-64.453,78.613,0.000
1759553088.182,73.242,-58.594,-62.500,91.309,0.000
1759553088.186,107.910,-58.594,-62.012,97.168,0.000
1759553088.190,100.098,-54.199,-54.688,82.520,0.000
1759553088.194,65.918,-54.688,-56.152,75.195,0.000
1759553088.198,59.570,-54.688,-62.500,77.637,0.000
1759553088.202,86.426,-44.434,-64.941,75.195,0.000
1759553088.206,89.844,-39.551,-64.453,70.312,0.000
1759553088.210,64.941,-37.598,-58.105,72.266,0.000
1759553088.214,50.781,-41.992,-50.293,74.707,0.000
1759553088.218,67.871,-47.363,-52.246,70.801,0.000
1759553088.221,94.727,-42.969,-52.734,65.918,0.000
1759553088.225,76.172,-40.039,-51.270,62.988,0.000
1759553088.229,48.340,-43.457,-53.711,71.777,0.000
1759553088.233,57.129,-43.945,-47.363,70.312,0.000
1759553088.237,83.984,-37.109,-44.434,56.152,0.000
1759553088.241,76.172,-35.156,-48.340,57.617,0.000
1759553088.245,38.574,-36.621,-41.016,60.547,0.000
1759553088.249,38.086,-34.668,-41.504,51.758,0.000
1759553088.253,69.336,-33.203,-41.016,40.039,0.000
1759553088.257,70.312,-35.645,-38.086,36.133,0.000
1759553088.261,36.621,-37.598,-36.621,36.133,0.000
1759553088.264,25.879,-33.691,-28.320,36.621,0.000
1759553088.268,48.828,-40.527,-31.738,35.645,0.000
1759553088.272,67.871,-46.387,-39.062,34.668,0.000
1759553088.276,41.504,-40.039,-35.645,31.250,0.000
1759553088.280,3.418,-38.574,-27.832,18.555,0.000
1759553088.284,12.695,-38.574,-27.344,10.742,0.000
1759553088.288,47.852,-42.480,-33.691,25.391,0.000
1759553088.292,36.133,-38.086,-27.344,31.738,0.000
1759553088.296,-2.441,-30.273,-19.043,11.230,0.000
1759553088.300,13.184,-31.738,-24.414,5.371,0.000
1759553088.304,52.246,-34.180,-27.344,26.855,0.000
1759553088.307,40.527,-32.227,-29.297,25.391,0.000
1759553088.311,7.812,-30.273,-21.484,15.625,0.000
1759553088.315,9.277,-34.180,-16.602,18.066,0.000
1759553088.319,40.039,-40.039,-23.926,20.508,0.000
1759553088.323,36.621,-40.527,-28.320,14.160,0.000
1759553088.327,-6.348,-39.551,-26.367,1.465,0.000
1759553088.331,-14.160,-37.109,-24.902,4.395,0.000
1759553088.335,15.137,-34.668,-31.250,16.602,0.000
1759553088.339,28.320,-36.133,-37.109,17.578,0.000
1759553088.343,14.160,-34.180,-36.133,17.090,0.000
1759553088.347,4.395,-37.109,-40.039,21.484,0.000
1759553088.350,25.879,-32.715,-41.992,16.602,0.000
1759553088.354,51.270,-26.855,-43.945,18.555,0.000
1759553088.358,32.227,-24.902,-47.363,24.902,0.000
1759553088.362,-1.465,-27.344,-42.969,17.578,0.000
1759553088.366,3.418,-29.785,-43.457,4.395,0.000
1759553088.370,29.785,-25.879,-48.828,-3.418,0.000
1759553088.374,20.020,-24.414,-40.527,-3.906,0.000
1759553088.378,-8.301,-26.367,-36.133,7.324,0.000
1759553088.382,-8.301,-31.250,-37.598,13.184,0.000
1759553088.386,23.438,-36.621,-33.691,5.371,0.000
1759553088.389,37.598,-39.551,-35.645,10.742,0.000
1759553088.393,2.930,-35.645,-37.598,12.695,0.000
1759553088.397,-10.742,-34.180,-39.062,11.719,0.000
1759553088.401,24.414,-29.785,-43.945,10.742,0.000
1759553088.405,45.410,-23.438,-47.363,11.230,0.000
1759553088.409,13.672,-27.832,-56.641,7.812,0.000
1759553088.413,-14.648,-32.227,-61.035,1.953,0.000
1759553088.417,5.859,-27.832,-53.223,1.953,0.000
1759553088.421,35.156,-22.461,-51.758,4.395,0.000
1759553088.425,22.461,-31.250,-58.105,15.137,0.000
1759553088.429,-13.672,-36.621,-43.945,17.578,0.000
1759553088.432,-12.207,-36.133,-38.574,7.812,0.000
1759553088.436,24.902,-36.133,-47.363,9.277,0.000
1759553088.440,24.902,-32.227,-47.363,3.906,0.000
1759553088.444,-7.812,-39.062,-43.945,1.953,0.000
1759553088.448,-8.301,-37.109,-30.762,10.254,0.000
1759553088.452,23.438,-25.879,-30.762,14.648,0.000
1759553088.456,31.250,-23.438,-36.621,18.066,0.000
1759553088.460,-4.395,-24.902,-31.738,17.090,0.000
1759553088.464,-24.414,-28.320,-31.250,11.230,0.000
1759553088.468,3.418,-32.227,-41.016,12.695,0.000
1759553088.472,30.273,-26.367,-42.969,22.949,0.000
1759553088.475,1.953,-17.578,-30.273,7.812,0.000
1759553088.479,-28.320,-24.902,-29.785,-2.930,0.000
1759553088.483,-10.742,-34.668,-41.992,1.465,0.000
1759553088.487,23.438,-30.762,-46.387,1.465,0.000
1759553088.491,17.090,-21.973,-40.039,6.348,0.000
1759553088.495,-17.090,-21.973,-31.738,15.625,0.000
1759553088.499,-12.695,-31.250,-37.109,8.301,0.000
1759553088.503,20.020,-32.227,-41.504,0.977,0.000
1759553088.507,20.020,-25.391,-37.109,3.906,0.000
1759553088.511,-15.625,-17.090,-29.785,0.488,0.000
1759553088.514,-16.602,-19.531,-30.762,13.184,0.000
1759553088.518,15.137,-23.438,-41.992,17.578,0.000
1759553088.522,27.832,-21.973,-40.039,7.324,0.000
1759553088.526,1.465,-23.438,-36.133,4.395,0.000
1759553088.530,-17.578,-25.879,-37.109,4.395,0.000
1759553088.534,9.277,-27.344,-37.109,8.789,0.000
1759553088.538,32.227,-29.297,-38.574,10.254,0.000
1759553088.542,3.418,-34.668,-40.039,3.418,0.000
1759553088.546,-28.320,-35.156,-35.645,-0.977,0.000
1759553088.550,-16.113,-31.738,-41.016,-6.348,0.000
1759553088.554,12.695,-28.809,-48.828,-10.742,0.000
1759553088.557,6.836,-32.715,-53.223,-4.883,0.000
1759553088.561,-22.949,-32.227,-54.688,-2.930,0.000
1759553088.565,-22.949,-23.438,-39.062,-4.883,0.000
1759553088.569,12.207,-22.949,-40.527,-4.395,0.000
1759553088.573,16.602,-32.715,-49.805,-4.883,0.000
1759553088.577,-18.066,-37.598,-44.434,-8.789,0.000
1759553088.581,-28.809,-29.785,-36.133,-14.648,0.000
1759553088.585,2.930,-31.738,-33.691,-13.672,0.000
1759553088.589,21.484,-36.133,-38.086,-6.348,0.000
1759553088.593,-11.719,-33.691,-38.086,-12.207,0.000
1759553088.597,-31.250,-32.227,-34.668,-13.184,0.000
1759553088.600,-5.371,-31.250,-35.156,-6.836,0.000
1759553088.604,25.879,-30.762,-42.480,5.859,0.000
1759553088.608,4.395,-28.809,-39.062,3.418,0.000
1759553088.612,-33.691,-28.809,-27.344,-8.789,0.000
1759553088.616,-26.367,-33.691,-39.551,-10.254,0.000
1759553088.620,5.371,-35.645,-48.828,-10.742,0.000
1759553088.624,11.230,-32.715,-41.992,-2.441,0.000
1759553088.628,-21.973,-30.762,-34.180,-3.906,0.000
1759553088.632,-24.414,-31.738,-34.180,-4.395,0.000
1759553088.636,15.137,-30.273,-37.598,-0.488,0.000
1759553088.639,23.926,-25.879,-41.992,-3.906,0.000
1759553088.643,-8.301,-22.461,-37.109,-3.906,0.000
1759553088.647,-12.207,-17.578,-33.203,10.254,0.000
1759553088.651,12.695,-22.461,-41.016,13.672,0.000
1759553088.655,27.344,-26.855,-38.086,3.418,0.000
1759553088.659,-0.977,-25.879,-38.086,-3.418,0.000
1759553088.663,-22.949,-32.227,-44.922,0.977,0.000
1759553088.667,-1.953,-31.738,-49.805,6.348,0.000
1759553088.671,19.531,-29.297,-49.316,0.488,0.000
1759553088.675,9.766,-30.762,-46.875,2.441,0.000
1759553088.679,-23.438,-27.832,-42.480,0.977,0.000
1759553088.682,-17.090,-29.297,-38.086,-0.488,0.000
1759553088.686,15.625,-31.250,-38.086,-2.930,0.000
1759553088.690,16.113,-28.320,-39.551,-3.906,0.000
1759553088.694,-16.602,-29.785,-36.133,5.371,0.000
1759553088.698,-28.320,-27.344,-37.598,2.441,0.000
1759553088.702,1.465,-21.484,-38.086,-6.348,0.000
1759553088.706,15.625,-30.762,-44.434,-8.301,0.000
1759553088.710,-9.766,-35.156,-47.363,0.977,0.000
1759553088.714,-21.973,-24.902,-39.062,1.953,0.000
1759553088.718,1.953,-21.484,-42.969,-11.719,0.000
1759553088.722,28.320,-24.902,-51.758,-7.324,0.000
1759553088.725,7.324,-24.414,-49.316,-3.906,0.000
1759553088.729,-22.949,-17.090,-44.922,-2.441,0.000
1759553088.733,-7.324,-20.508,-43.945,-1.465,0.000
1759553088.737,24.902,-28.809,-54.688,-0.488,0.000
1759553088.741,14.160,-30.273,-63.477,3.418,0.000
1759553088.745,-28.320,-26.367,-54.199,-3.906,0.000
1759553088.749,-22.461,-21.484,-44.434,-11.230,0.000
1759553088.753,17.090,-31.250,-52.734,1.953,0.000
1759553088.757,9.766,-36.133,-54.688,18.555,0.000
1759553088.761,-31.250,-25.879,-39.062,7.812,0.000
1759553088.764,-35.156,-27.344,-35.156,-4.883,0.000
1759553088.768,-0.977,-25.879,-35.645,-0.977,0.000
1759553088.772,13.184,-24.414,-26.367,-2.930,0.000
1759553088.776,-18.555,-27.344,-23.438,-6.836,0.000
1759553088.780,-32.715,-24.414,-25.391,-0.977,0.000
1759553088.784,-5.371,-27.344,-27.344,3.418,0.000
1759553088.788,17.090,-29.297,-34.180,0.977,0.000
1759553088.792,-5.859,-32.227,-39.062,-2.441,0.000
1759553088.796,-37.598,-32.227,-36.621,-3.906,0.000
1759553088.800,-14.160,-26.367,-42.480,3.418,0.000
1759553088.804,25.391,-20.508,-41.992,4.883,0.000
1759553088.807,13.672,-19.043,-39.551,-7.812,0.000
1759553088.811,-21.484,-22.949,-41.992,-11.230,0.000
1759553088.815,-15.137,-21.973,-36.621,-9.766,0.000
1759553088.819,16.113,-29.297,-42.969,-12.695,0.000
1759553088.823,19.531,-25.391,-48.340,-12.695,0.000
1759553088.827,-12.207,-22.461,-41.504,-9.277,0.000
1759553088.831,-23.438,-26.367,-34.668,-2.930,0.000
1759553088.835,7.324,-20.020,-33.691,-1.465,0.000
1759553088.839,24.414,-19.043,-31.250,-3.418,0.000
1759553088.843,2.441,-22.949,-35.156,1.953,0.000
1759553088.847,-20.508,-20.508,-38.574,2.930,0.000
1759553088.850,-7.324,-18.066,-37.598,-11.719,0.000
1759553088.854,19.043,-18.066,-43.457,-9.277,0.000
1759553088.858,2.441,-22.949,-44.922,-8.301,0.000
1759553088.862,-28.320,-22.949,-41.504,-16.113,0.000
1759553088.866,-14.648,-24.414,-39.551,-13.672,0.000
1759553088.870,24.902,-21.973,-42.480,-2.441,0.000
1759553088.874,20.996,-17.090,-43.457,5.859,0.000
1759553088.878,-10.742,-17.090,-35.156,6.348,0.000
1759553088.882,-9.277,-17.578,-30.273,7.324,0.000
1759553088.886,22.461,-20.508,-35.645,2.930,0.000
1759553088.889,33.203,-27.344,-40.527,3.906,0.000
1759553088.893,-4.883,-26.855,-33.691,-0.977,0.000
1759553088.897,-28.809,-27.344,-30.762,-15.625,0.000
1759553088.901,-5.859,-26.367,-41.016,-13.672,0.000
1759553088.905,21.484,-19.043,-44.434,-8.301,0.000
1759553088.909,0.488,-18.066,-32.227,-8.301,0.000
1759553088.913,-30.273,-16.602,-27.832,-6.836,0.000
1759553088.917,-8.301,-18.555,-33.203,-0.977,0.000
1759553088.921,27.344,-21.484,-34.668,-3.418,0.000
1759553088.925,4.883,-20.508,-37.598,-13.672,0.000
1759553088.929,-28.809,-20.508,-40.039,-11.719,0.000
1759553088.932,-9.766,-21.973,-40.527,-2.441,0.000
1759553088.936,26.367,-25.879,-42.480,7.812,0.000
1759553088.940,16.602,-20.020,-36.621,-0.977,0.000
1759553088.944,-23.926,-17.578,-31.738,-14.648,0.000
1759553088.948,-22.949,-21.973,-38.086,-5.859,0.000
1759553088.952,14.648,-20.020,-42.480,0.488,0.000
1759553088.956,21.973,-18.066,-45.410,-2.930,0.000
1759553088.960,-12.695,-20.508,-50.293,-4.883,0.000
1759553088.964,-29.297,-24.902,-41.992,-7.324,0.000
1759553088.968,-0.977,-21.973,-33.691,-7.324,0.000
1759553088.972,21.973,-26.367,-41.504,-1.465,0.000
1759553088.975,-0.977,-32.715,-44.434,-4.883,0.000
1759553088.979,-27.832,-30.273,-45.898,-9.277,0.000
1759553088.983,-17.090,-26.367,-44.922,-13.672,0.000
1759553088.987,11.719,-21.973,-37.109,-13.672,0.000
1759553088.991,16.602,-20.020,-38.574,-5.859,0.000
1759553088.995,-15.137,-19.043,-38.086,-9.766,0.000
1759553088.999,-15.625,-17.090,-38.086,-12.207,0.000
1759553089.003,25.391,-12.695,-33.691,-2.930,0.000
1759553089.007,20.020,-18.066,-36.133,-1.953,0.000
1759553089.011,-19.531,-25.879,-38.086,-3.418,0.000
1759553089.014,-24.902,-25.879,-33.203,-0.977,0.000
1759553089.018,0.977,-25.391,-38.086,-7.812,0.000
1759553089.022,21.973,-26.855,-41.016,-6.836,0.000
1759553089.026,-1.465,-26.367,-39.062,-4.883,0.000
1759553089.030,-33.203,-26.855,-25.391,-14.648,0.000
1759553089.034,-14.160,-25.879,-20.508,-17.090,0.000
1759553089.038,21.484,-26.855,-33.691,-7.812,0.000
1759553089.042,2.930,-27.344,-38.574,-2.930,0.000
1759553089.046,-38.574,-25.879,-31.738,-11.230,0.000
1759553089.050,-25.391,-26.367,-33.203,-10.254,0.000
1759553089.054,12.695,-30.273,-39.551,-7.324,0.000
1759553089.057,8.301,-34.668,-39.551,-10.254,0.000
1759553089.061,-18.555,-29.785,-33.691,-3.906,0.000
1759553089.065,-13.184,-24.414,-35.156,6.348,0.000
1759553089.069,13.672,-26.367,-44.922,1.953,0.000
1759553089.073,19.043,-22.461,-44.434,4.395,0.000
1759553089.077,-14.160,-15.625,-36.133,2.441,0.000
1759553089.081,-25.391,-16.602,-34.180,-3.418,0.000
1759553089.085,14.648,-17.578,-43.945,6.348,0.000
1759553089.089,28.320,-20.996,-50.781,1.465,0.000
1759553089.093,-10.254,-26.367,-44.922,-4.395,0.000
1759553089.097,-29.297,-23.438,-41.992,-0.488,0.000
1759553089.100,-5.859,-25.391,-50.781,-4.883,0.000
1759553089.104,21.484,-31.738,-53.223,-1.953,0.000
1759553089.108,1.465,-28.809,-52.734,-3.906,0.000
1759553089.112,-23.926,-21.973,-52.734,0.977,0.000
1759553089.116,-1.953,-19.531,-56.641,10.742,0.000
1759553089.120,27.344,-18.066,-57.129,-2.441,0.000
1759553089.124,18.066,-19.531,-56.152,-9.277,0.000
1759553089.128,-14.160,-30.273,-59.570,0.977,0.000
1759553089.132,-20.508,-32.715,-58.594,3.418,0.000
1759553089.136,10.254,-19.531,-51.270,-4.883,0.000
1759553089.139,23.926,-18.066,-51.270,-2.441,0.000
1759553089.143,-8.301,-22.949,-51.758,3.906,0.000
1759553089.147,-24.902,-26.367,-50.293,3.906,0.000
1759553089.151,2.930,-19.531,-52.246,0.977,0.000
1759553089.155,27.344,-20.508,-57.617,0.488,0.000
1759553089.159,0.000,-25.391,-59.082,4.395,0.000
1759553089.163,-29.785,-22.461,-55.176,3.418,0.000
1759553089.167,-11.719,-26.367,-54.199,-5.371,0.000
1759553089.171,21.484,-31.738,-55.176,-9.277,0.000
1759553089.175,12.207,-27.832,-58.105,3.906,0.000
1759553089.179,-22.461,-24.414,-52.246,0.488,0.000
1759553089.182,-12.695,-18.066,-41.992,-9.277,0.000
1759553089.186,27.344,-20.020,-46.875,-0.977,0.000
1759553089.190,19.043,-27.344,-55.664,-3.906,0.000
1759553089.194,-20.020,-17.578,-48.340,-9.277,0.000
1759553089.198,-22.949,-18.066,-39.551,-8.789,0.000
1759553089.202,9.766,-29.297,-44.922,-3.906,0.000
1759553089.206,21.973,-26.367,-47.852,-2.441,0.000
1759553089.210,-7.324,-26.367,-40.527,-8.301,0.000
1759553089.214,-24.902,-28.809,-32.227,-11.230,0.000
1759553089.218,1.953,-33.203,-41.016,-1.953,0.000
1759553089.222,31.738,-33.203,-48.340,8.789,0.000
1759553089.225,-0.977,-20.020,-38.574,0.488,0.000
1759553089.229,-32.715,-21.484,-37.109,-6.836,0.000
1759553089.233,-5.859,-27.344,-42.480,-7.324,0.000
1759553089.237,27.832,-25.391,-43.945,1.953,0.000
1759553089.241,14.160,-26.367,-42.969,1.465,0.000
1759553089.245,-20.020,-27.832,-48.340,-6.348,0.000
1759553089.249,-11.719,-26.855,-50.293,1.953,0.000
1759553089.253,21.484,-26.855,-51.758,-0.977,0.000
1759553089.257,19.043,-29.785,-59.082,-3.906,0.000
1759553089.261,-17.090,-31.250,-58.105,0.977,0.000
1759553089.264,-21.973,-33.691,-60.059,10.742,0.000
1759553089.268,10.742,-30.273,-62.012,5.371,0.000
1759553089.272,23.438,-29.297,-59.082,-6.836,0.000
1759553089.276,-4.395,-24.414,-63.477,-3.418,0.000
1759553089.280,-21.973,-22.949,-62.988,-1.953,0.000
1759553089.284,-1.953,-23.438,-57.129,-4.883,0.000
1759553089.288,20.508,-24.414,-56.641,-9.766,0.000
1759553089.292,0.000,-30.762,-56.152,-9.277,0.000
1759553089.296,-26.367,-25.391,-44.434,-2.930,0.000
1759553089.300,-6.348,-17.090,-40.527,5.859,0.000
1759553089.304,33.203,-20.020,-41.504,7.812,0.000
1759553089.307,27.832,-28.809,-37.598,17.090,0.000
1759553089.311,-10.742,-24.902,-38.086,19.043,0.000
1759553089.315,-16.602,-17.090,-28.809,2.441,0.000
1759553089.319,23.438,-15.625,-25.879,1.465,0.000
1759553089.323,27.832,-21.484,-38.574,3.906,0.000
1759553089.327,-11.230,-25.391,-41.992,-1.953,0.000
1759553089.331,-19.043,-21.973,-34.180,-0.977,0.000
1759553089.335,9.766,-22.949,-41.504,-0.977,0.000
1759553089.339,34.180,-24.414,-48.340,2.930,0.000
1759553089.343,9.766,-23.926,-39.551,5.371,0.000
1759553089.347,-15.625,-26.855,-38.574,1.953,0.000
1759553089.350,2.441,-32.227,-46.875,-1.465,0.000
1759553089.354,32.227,-32.227,-52.246,9.277,0.000
1759553089.358,17.090,-22.949,-50.293,10.742,0.000
1759553089.362,-19.043,-16.113,-38.086,2.441,0.000
1759553089.366,-10.254,-20.996,-43.457,0.000,0.000
1759553089.370,28.320,-24.414,-57.617,-0.488,0.000
1759553089.374,24.902,-25.391,-54.199,8.301,0.000
1759553089.378,-18.555,-26.367,-41.992,5.371,0.000
1759553089.382,-17.090,-22.461,-39.062,4.395,0.000
1759553089.386,15.625,-21.973,-41.992,7.812,0.000
1759553089.389,18.555,-20.996,-39.062,-1.465,0.000
1759553089.393,-14.648,-27.344,-40.527,-11.719,0.000
1759553089.397,-27.832,-35.156,-45.898,-7.324,0.000
1759553089.401,4.883,-25.391,-52.246,0.977,0.000
1759553089.405,20.508,-21.484,-49.316,-3.418,0.000
1759553089.409,-10.742,-25.391,-45.410,-14.648,0.000
1759553089.413,-30.762,-28.809,-42.480,-16.113,0.000
1759553089.417,-5.859,-28.320,-39.062,-8.789,0.000
1759553089.421,20.996,-20.508,-37.598,-7.812,0.000
1759553089.425,-3.906,-23.438,-41.016,-10.742,0.000
1759553089.429,-34.180,-27.832,-38.574,-10.254,0.000
1759553089.432,-16.602,-22.461,-34.668,0.488,0.000
1759553089.436,20.020,-16.602,-32.715,4.883,0.000
1759553089.440,15.137,-26.367,-35.156,-1.465,0.000
1759553089.444,-16.602,-30.762,-36.621,-2.441,0.000
1759553089.448,-20.508,-24.902,-33.203,0.488,0.000
1759553089.452,7.324,-20.020,-31.738,-8.301,0.000
1759553089.456,17.090,-27.344,-36.621,-13.184,0.000
1759553089.460,-15.625,-34.668,-42.969,-3.906,0.000
1759553089.464,-38.086,-25.879,-38.086,-19.043,0.000
1759553089.468,-14.648,-24.414,-32.715,-23.926,0.000
1759553089.472,15.625,-27.344,-32.715,-5.859,0.000
1759553089.475,-12.207,-23.926,-32.227,-7.812,0.000
1759553089.479,-49.316,-23.926,-32.715,-8.301,0.000
1759553089.483,-26.367,-27.344,-37.109,-6.836,0.000
1759553089.487,3.906,-33.691,-40.527,-11.230,0.000
1759553089.491,-11.230,-36.133,-43.457,-12.695,0.000
1759553089.495,-40.527,-26.855,-43.945,-18.555,0.000
1759553089.499,-45.410,-27.344,-38.574,-33.203,0.000
1759553089.503,-0.488,-19.043,-19.531,-20.020,0.000
1759553089.507,5.859,-18.555,-23.438,-6.348,0.000
1759553089.511,-40.039,-21.484,-32.715,-24.414,0.000
1759553089.514,-50.293,-21.973,-16.113,-28.809,0.000
1759553089.518,-37.109,-31.250,-3.418,-39.062,0.000
1759553089.522,-29.297,-3.906,2.441,-49.316,0.000
1759553089.526,-52.246,5.371,-13.672,-46.875,0.000
1759553089.530,-96.680,-14.648,-28.320,-69.336,0.000
1759553089.534,-90.820,-2.441,-9.277,-99.121,0.000
1759553089.538,-86.426,17.578,-1.953,-126.953,0.000
1759553089.542,-150.391,17.090,-12.695,-158.691,0.000
1759553089.546,-210.449,17.090,-4.883,-184.570,0.000
1759553089.550,-217.773,22.949,-3.418,-201.660,0.000
1759553089.554,-207.031,33.691,12.695,-213.379,0.000
1759553089.557,-232.422,63.965,12.207,-241.699,0.000
1759553089.561,-278.320,70.312,-12.695,-261.230,0.000
1759553089.565,-286.133,64.453,-0.488,-265.625,0.000
1759553089.569,-259.766,72.266,-1.465,-272.461,0.000
1759553089.573,-245.117,77.148,-0.977,-265.625,0.000
1759553089.577,-274.414,84.473,9.766,-259.277,0.000
1759553089.581,-282.227,82.031,10.742,-249.512,0.000
1759553089.585,-232.422,77.148,-0.977,-236.328,0.000
1759553089.589,-193.359,81.543,-8.789,-225.586,0.000
1759553089.593,-213.379,71.289,-5.371,-210.449,0.000
1759553089.597,-230.957,67.383,2.441,-187.500,0.000
1759553089.600,-198.730,72.754,17.090,-187.500,0.000
1759553089.604,-157.227,69.336,16.602,-181.641,0.000
1759553089.608,-152.832,60.547,7.812,-156.738,0.000
1759553089.612,-171.387,51.758,10.254,-150.391,0.000
1759553089.616,-141.113,44.922,14.648,-138.184,0.000
1759553089.620,-79.102,35.156,12.207,-101.562,0.000
1759553089.624,-64.941,32.715,8.301,-78.125,0.000
1759553089.628,-88.379,28.320,5.371,-77.148,0.000
1759553089.632,-63.477,23.926,-5.371,-52.734,0.000
1759553089.636,-9.277,13.672,-20.020,-28.809,0.000
1759553089.639,8.301,-4.883,-24.414,-9.766,0.000
1759553089.643,-9.277,-7.324,-16.602,7.812,0.000
1759553089.647,-15.137,-10.742,-13.672,9.766,0.000
1759553089.651,26.855,-23.438,-23.926,19.531,0.000
1759553089.655,65.918,-41.016,-30.762,36.133,0.000
1759553089.659,43.945,-45.898,-40.039,44.922,0.000
1759553089.663,30.273,-47.852,-41.016,53.223,0.000
1759553089.667,78.125,-50.293,-40.527,75.684,0.000
1759553089.671,121.582,-45.898,-47.363,92.773,0.000
1759553089.675,103.516,-55.176,-44.434,94.727,0.000
1759553089.679,70.312,-70.312,-40.039,96.680,0.000
1759553089.682,88.379,-74.707,-42.969,101.074,0.000
1759553089.686,125.977,-78.125,-44.922,105.957,0.000
1759553089.690,119.141,-75.195,-35.645,101.074,0.000
1759553089.694,86.914,-77.148,-36.621,95.703,0.000
1759553089.698,88.379,-82.031,-43.945,104.492,0.000
1759553089.702,131.348,-71.777,-45.898,117.676,0.000
1759553089.706,149.414,-66.406,-39.551,121.582,0.000
1759553089.710,115.234,-75.195,-33.691,120.117,0.000
1759553089.714,94.238,-74.219,-31.738,118.652,0.000
1759553089.718,117.676,-76.172,-35.645,112.305,0.000
1759553089.722,133.789,-76.172,-40.039,108.887,0.000
1759553089.725,112.793,-72.266,-37.598,113.770,0.000
1759553089.729,91.797,-70.312,-35.156,118.164,0.000
1759553089.733,109.375,-62.012,-34.180,117.676,0.000
1759553089.737,137.695,-57.617,-31.250,112.305,0.000
1759553089.741,118.652,-59.570,-33.203,104.980,0.000
1759553089.745,81.543,-62.988,-30.273,108.398,0.000
1759553089.749,80.566,-67.871,-33.203,103.027,0.000
1759553089.753,107.910,-64.941,-37.109,91.309,0.000
1759553089.757,108.887,-59.082,-35.645,89.355,0.000
1759553089.761,65.430,-63.477,-37.109,79.102,0.000
1759553089.765,51.270,-64.453,-26.855,75.684,0.000
1759553089.768,88.379,-46.387,-22.461,80.078,0.000
1759553089.772,96.191,-46.875,-39.551,68.848,0.000
1759553089.776,60.059,-61.035,-41.992,61.035,0.000
1759553089.780,29.297,-39.551,-3.906,40.527,0.000
1759553089.784,47.363,-24.902,-17.578,29.297,0.000
1759553089.788,82.520,-29.297,-51.270,37.109,0.000
1759553089.792,36.133,-41.504,-32.227,12.207,0.000
1759553089.796,-19.043,-35.156,-18.066,-11.719,0.000
1759553089.800,-18.555,-21.973,-28.320,-24.902,0.000
1759553089.804,-22.461,-21.484,-22.461,-53.711,0.000
1759553089.807,-63.965,-20.020,-8.789,-80.078,0.000
1759553089.811,-127.930,-18.066,-0.977,-111.816,0.000
1759553089.815,-147.461,0.977,0.000,-144.531,0.000
1759553089.819,-134.766,14.160,-7.324,-160.645,0.000
1759553089.823,-149.414,23.926,-8.789,-169.922,0.000
1759553089.827,-187.500,38.574,-1.465,-182.617,0.000
1759553089.831,-207.031,51.270,-7.812,-204.590,0.000
1759553089.835,-171.387,53.711,-23.438,-188.477,0.000
1759553089.839,-145.020,53.711,-25.391,-173.828,0.000
1759553089.843,-168.945,59.570,-19.531,-183.105,0.000
1759553089.847,-174.805,54.199,-21.484,-163.574,0.000
1759553089.850,-126.953,41.992,-22.949,-132.812,0.000
1759553089.854,-83.984,29.785,-19.531,-116.211,0.000
1759553089.858,-94.238,20.508,-22.461,-111.816,0.000
1759553089.862,-109.375,9.277,-32.227,-96.680,0.000
1759553089.866,-78.125,-2.441,-39.062,-72.754,0.000
1759553089.870,-33.691,-7.324,-43.945,-62.012,0.000
1759553089.874,-26.855,-8.301,-42.480,-52.246,0.000
1759553089.878,-37.109,-17.090,-41.504,-28.809,0.000
1759553089.882,-20.996,-21.973,-39.551,-10.254,0.000
1759553089.886,15.137,-21.973,-36.621,-6.836,0.000
1759553089.889,28.320,-33.203,-43.945,8.789,0.000
1759553089.893,11.719,-43.945,-46.875,23.438,0.000
1759553089.897,7.812,-47.852,-43.457,26.855,0.000
1759553089.901,40.039,-55.664,-45.898,33.203,0.000
1759553089.905,70.801,-62.988,-48.340,45.898,0.000
1759553089.909,55.664,-63.477,-52.734,57.129,0.000
1759553089.913,39.062,-62.988,-57.129,58.594,0.000
1759553089.917,66.406,-61.035,-55.176,66.406,0.000
1759553089.921,101.562,-58.105,-51.270,81.543,0.000
1759553089.925,91.309,-64.941,-52.246,94.727,0.000
1759553089.929,59.570,-65.918,-43.457,94.238,0.000
1759553089.932,66.406,-60.547,-35.156,88.379,0.000
1759553089.936,105.957,-57.617,-40.527,90.332,0.000
1759553089.940,106.445,-59.570,-48.828,92.773,0.000
1759553089.944,65.918,-57.617,-47.363,84.473,0.000
1759553089.948,62.500,-49.805,-41.992,75.684,0.000
1759553089.952,100.098,-56.152,-50.781,77.148,0.000
1759553089.956,109.375,-58.105,-55.664,81.543,0.000
1759553089.960,77.637,-47.852,-50.781,84.473,0.000
1759553089.964,61.523,-46.387,-49.316,81.543,0.000
1759553089.968,90.820,-51.758,-55.176,80.078,0.000
1759553089.972,114.258,-54.199,-57.617,88.867,0.000
1759553089.975,79.590,-49.316,-44.922,83.008,0.000
1759553089.979,50.293,-50.781,-41.016,77.637,0.000
1759553089.983,61.523,-57.129,-51.758,76.172,0.000
1759553089.987,89.844,-56.152,-55.664,77.148,0.000
1759553089.991,82.031,-48.828,-42.480,76.660,0.000
1759553089.995,51.270,-44.434,-34.668,70.312,0.000
1759553089.999,61.523,-40.527,-41.992,77.148,0.000
1759553090.003,100.098,-39.551,-46.387,86.426,0.000
1759553090.007,98.145,-41.992,-44.434,83.008,0.000
1759553090.011,61.035,-34.668,-39.062,77.148,0.000
1759553090.015,52.734,-38.086,-42.480,76.660,0.000
1759553090.018,77.637,-40.527,-48.340,70.312,0.000
1759553090.022,86.914,-29.297,-42.969,63.965,0.000
1759553090.026,51.270,-29.297,-42.969,55.664,0.000
1759553090.030,32.715,-41.504,-47.852,48.828,0.000
1759553090.034,57.617,-45.898,-52.734,51.758,0.000
1759553090.038,70.801,-37.109,-50.781,46.875,0.000
1759553090.042,44.922,-36.621,-47.852,41.504,0.000
1759553090.046,19.043,-41.016,-47.363,45.410,0.000
1759553090.050,38.086,-39.551,-49.316,42.480,0.000
1759553090.054,64.941,-46.387,-54.199,43.457,0.000
1759553090.057,50.781,-48.340,-52.246,49.805,0.000
1759553090.061,21.973,-42.480,-45.410,48.340,0.000
1759553090.065,21.484,-35.156,-36.621,34.180,0.000
1759553090.069,51.758,-39.062,-41.016,26.367,0.000
1759553090.073,58.105,-47.852,-46.875,27.344,0.000
1759553090.077,21.973,-45.898,-42.969,24.414,0.000
1759553090.081,8.789,-41.504,-38.574,24.902,0.000
1759553090.085,33.691,-40.527,-39.551,25.391,0.000
1759553090.089,41.992,-36.621,-44.922,26.855,0.000
1759553090.093,9.766,-35.645,-41.992,28.809,0.000
1759553090.097,-1.953,-39.551,-34.668,22.461,0.000
1759553090.100,26.367,-38.574,-37.598,16.602,0.000
1759553090.104,49.316,-38.086,-49.805,30.273,0.000
1759553090.108,24.414,-35.645,-48.340,31.250,0.000
1759553090.112,-15.625,-30.273,-36.133,13.184,0.000
1759553090.116,-0.488,-33.203,-40.527,10.742,0.000
1759553090.120,36.133,-33.691,-50.293,12.695,0.000
1759553090.124,34.180,-27.832,-53.223,14.160,0.000
1759553090.128,-2.441,-24.414,-47.852,11.719,0.000
1759553090.132,-7.812,-29.785,-40.039,11.719,0.000
1759553090.136,27.344,-30.762,-44.434,15.625,0.000
1759553090.140,35.645,-24.902,-40.527,9.766,0.000
1759553090.143,-5.371,-24.902,-28.320,11.230,0.000
1759553090.147,-22.461,-30.273,-35.156,13.184,0.000
1759553090.151,8.789,-31.738,-40.039,5.371,0.000
1759553090.155,22.461,-32.715,-31.738,3.906,0.000
1759553090.159,1.953,-24.414,-25.391,7.812,0.000
1759553090.163,-13.184,-20.996,-24.902,11.230,0.000
1759553090.167,4.883,-28.809,-27.832,7.812,0.000
1759553090.171,34.668,-22.461,-21.973,-0.488,0.000
1759553090.175,19.043,-17.578,-21.973,-1.465,0.000
1759553090.179,-10.254,-25.879,-23.438,-2.441,0.000
1759553090.182,0.977,-27.344,-30.273,-8.301,0.000
1759553090.186,35.156,-28.320,-36.621,-8.789,0.000
1759553090.190,34.180,-26.367,-36.621,-1.953,0.000
1759553090.194,-3.906,-24.414,-45.898,2.930,0.000
1759553090.198,-8.301,-23.438,-50.293,-0.488,0.000
1759553090.202,27.832,-23.438,-50.293,-1.953,0.000
1759553090.206,39.062,-27.344,-51.270,8.789,0.000
1759553090.210,0.977,-32.227,-51.270,9.277,0.000
1759553090.214,-18.555,-31.738,-45.410,4.395,0.000
1759553090.218,14.160,-29.785,-42.480,1.953,0.000
1759553090.222,37.109,-31.738,-50.293,3.418,0.000
1759553090.225,3.418,-33.203,-50.293,6.348,0.000
1759553090.229,-21.973,-32.227,-45.898,2.441,0.000
1759553090.233,-3.418,-27.832,-48.340,-3.906,0.000
1759553090.237,27.344,-27.832,-54.688,4.395,0.000
1759553090.241,20.020,-34.180,-57.617,10.742,0.000
1759553090.245,-17.090,-32.227,-44.922,2.441,0.000
1759553090.249,-11.719,-24.414,-30.762,2.930,0.000
1759553090.253,31.250,-27.832,-42.969,6.836,0.000
1759553090.257,33.691,-29.297,-54.688,6.836,0.000
1759553090.261,-11.230,-25.391,-44.434,-1.465,0.000
1759553090.265,-18.066,-31.250,-42.480,-1.953,0.000
1759553090.268,19.531,-29.297,-50.781,9.277,0.000
1759553090.272,31.738,-22.461,-52.246,16.602,0.000
1759553090.276,3.418,-23.926,-47.363,14.160,0.000
1759553090.280,-14.648,-27.344,-40.039,1.953,0.000
1759553090.284,6.836,-34.180,-42.480,-1.953,0.000
1759553090.288,22.949,-36.621,-44.922,3.906,0.000
1759553090.292,-4.883,-36.133,-41.016,1.465,0.000
1759553090.296,-34.668,-32.227,-34.668,-5.371,0.000
1759553090.300,-12.207,-31.250,-38.574,10.742,0.000
1759553090.304,23.926,-29.297,-39.062,16.602,0.000
1759553090.307,4.883,-30.273,-31.250,3.418,0.000
1759553090.311,-24.902,-29.785,-30.762,7.324,0.000
1759553090.315,-17.578,-28.809,-31.738,5.859,0.000
1759553090.319,11.230,-31.738,-35.156,-0.977,0.000
1759553090.323,5.859,-34.180,-35.645,-4.395,0.000
1759553090.327,-29.785,-32.715,-35.156,-5.859,0.000
1759553090.331,-31.250,-30.273,-36.621,-0.977,0.000
1759553090.335,8.789,-29.785,-37.109,3.906,0.000
1759553090.339,23.926,-29.785,-41.504,-0.488,0.000
1759553090.343,-11.719,-29.785,-42.969,-6.836,0.000
1759553090.347,-31.738,-29.297,-43.945,-2.441,0.000
1759553090.350,-12.207,-28.809,-41.504,-4.883,0.000
1759553090.354,16.113,-30.273,-39.551,-4.883,0.000
1759553090.358,0.977,-27.832,-38.086,-2.930,0.000
1759553090.362,-34.668,-31.250,-35.645,-8.789,0.000
1759553090.366,-19.531,-36.133,-38.086,-6.348,0.000
1759553090.370,10.742,-33.691,-52.246,-3.906,0.000
1759553090.374,-1.465,-32.715,-59.570,-3.906,0.000
1759553090.378,-35.645,-31.250,-53.711,-3.418,0.000
1759553090.382,-35.156,-29.785,-57.617,-12.695,0.000
1759553090.386,5.371,-26.367,-63.965,-12.695,0.000
1759553090.390,20.996,-25.391,-68.359,6.836,0.000
1759553090.393,-12.207,-21.973,-59.082,9.766,0.000
1759553090.397,-22.461,-18.555,-43.457,7.324,0.000
1759553090.401,15.625,-24.414,-47.363,15.137,0.000
1759553090.405,30.762,-29.785,-54.688,17.090,0.000
1759553090.409,-5.371,-23.438,-51.758,13.672,0.000
1759553090.413,-34.180,-23.926,-50.293,-2.930,0.000
1759553090.417,-10.742,-29.785,-58.105,-3.906,0.000
1759553090.421,17.578,-27.344,-60.059,4.883,0.000
1759553090.425,-2.930,-29.297,-60.547,-4.883,0.000
1759553090.429,-23.926,-32.227,-62.988,-8.301,0.000
1759553090.432,-12.207,-30.762,-70.312,0.488,0.000
1759553090.436,12.695,-29.785,-75.684,7.324,0.000
1759553090.440,5.371,-32.715,-70.312,-2.930,0.000
1759553090.444,-27.832,-35.156,-60.547,-8.789,0.000
1759553090.448,-25.879,-29.297,-62.988,-2.441,0.000
1759553090.452,5.371,-29.297,-68.848,-4.395,0.000
1759553090.456,14.160,-27.344,-62.500,-9.277,0.000
1759553090.460,-12.695,-22.461,-62.012,-8.301,0.000
1759553090.464,-27.832,-26.367,-61.035,-2.441,0.000
1759553090.468,1.465,-28.320,-61.523,-3.418,0.000
1759553090.472,22.461,-28.809,-61.523,-5.859,0.000
1759553090.475,-4.395,-25.391,-54.199,-3.418,0.000
1759553090.479,-21.484,-24.414,-56.152,8.301,0.000
1759553090.483,-1.465,-32.227,-52.734,3.906,0.000
1759553090.487,26.367,-23.926,-38.086,-3.906,0.000
1759553090.491,21.484,-12.695,-33.691,4.883,0.000
1759553090.495,-9.766,-18.066,-31.250,4.395,0.000
1759553090.499,-9.766,-25.391,-37.598,-1.953,0.000
1759553090.503,27.344,-25.391,-42.480,2.441,0.000
1759553090.507,32.227,-24.414,-40.527,10.254,0.000
1759553090.511,-6.348,-22.949,-38.574,2.930,0.000
1759553090.515,-11.230,-24.414,-30.273,1.465,0.000
1759553090.518,23.926,-24.414,-33.203,2.930,0.000
1759553090.522,38.574,-22.461,-45.898,5.371,0.000
1759553090.526,8.789,-23.438,-47.363,7.324,0.000
1759553090.530,-13.184,-17.090,-41.504,-4.395,0.000
1759553090.534,14.648,-19.531,-45.898,-6.348,0.000
1759553090.538,40.527,-19.043,-51.758,2.441,0.000
1759553090.542,8.301,-13.184,-49.805,-0.488,0.000
1759553090.546,-22.461,-16.602,-42.969,-9.277,0.000
1759553090.550,4.395,-14.160,-42.969,-4.395,0.000
1759553090.554,40.039,-10.254,-46.875,3.906,0.000
1759553090.557,24.414,-12.207,-51.758,0.977,0.000
1759553090.561,-12.207,-17.578,-52.246,-3.906,0.000
1759553090.565,-13.184,-23.926,-49.316,-5.371,0.000
1759553090.569,20.508,-25.879,-55.176,1.953,0.000
1759553090.573,20.508,-23.438,-53.711,3.418,0.000
1759553090.577,-18.555,-14.648,-46.875,-2.930,0.000
1759553090.581,-24.414,-19.043,-48.340,-3.906,0.000
1759553090.585,19.043,-25.391,-53.223,-0.488,0.000
1759553090.589,35.156,-24.902,-49.805,-2.930,0.000
1759553090.593,-4.395,-27.344,-44.434,-4.395,0.000
1759553090.597,-21.484,-24.902,-45.410,2.930,0.000
1759553090.600,-2.441,-23.926,-46.875,-6.836,0.000
1759553090.604,23.438,-21.484,-50.293,-10.742,0.000
1759553090.608,7.324,-20.996,-49.805,-5.859,0.000
1759553090.612,-17.090,-25.879,-44.922,-3.906,0.000
1759553090.616,4.395,-24.414,-45.410,0.000,0.000
1759553090.620,34.180,-19.043,-42.480,7.324,0.000
1759553090.624,24.414,-17.090,-35.645,12.207,0.000
1759553090.628,-11.230,-18.555,-37.598,6.836,0.000
1759553090.632,-6.836,-19.043,-44.434,12.207,0.000
1759553090.636,17.578,-23.926,-41.016,4.883,0.000
1759553090.640,17.090,-27.832,-40.039,-5.859,0.000
1759553090.643,-9.277,-26.855,-34.180,-1.953,0.000
1759553090.647,-20.020,-27.344,-24.902,-9.766,0.000
1759553090.651,7.812,-31.250,-31.738,-20.996,0.000
1759553090.655,28.320,-32.715,-35.156,-6.836,0.000
1759553090.659,2.441,-24.414,-32.715,1.465,0.000
1759553090.663,-22.461,-25.391,-35.156,-3.906,0.000
1759553090.667,-0.488,-24.902,-31.738,-6.348,0.000
1759553090.671,32.715,-15.625,-27.344,0.977,0.000
1759553090.675,10.254,-21.973,-35.156,12.207,0.000
1759553090.679,-30.273,-25.391,-26.855,1.953,0.000
1759553090.682,-20.508,-25.391,-15.137,-8.789,0.000
1759553090.686,20.020,-35.645,-26.367,-0.488,0.000
1759553090.690,24.414,-32.715,-29.785,6.836,0.000
1759553090.694,-12.207,-25.879,-29.297,6.348,0.000
1759553090.698,-11.230,-19.531,-29.785,6.836,0.000
1759553090.702,27.344,-17.090,-41.992,10.742,0.000
1759553090.706,26.855,-15.625,-49.805,7.812,0.000
1759553090.710,-11.719,-13.672,-40.527,0.977,0.000
1759553090.714,-15.625,-20.020,-37.598,3.906,0.000
1759553090.718,17.090,-22.949,-38.574,10.254,0.000
1759553090.722,32.715,-21.484,-35.156,17.578,0.000
1759553090.725,-5.371,-18.555,-28.320,7.812,0.000
1759553090.729,-31.738,-22.949,-24.902,0.000,0.000
1759553090.733,1.465,-30.273,-28.320,7.812,0.000
1759553090.737,34.668,-27.344,-33.203,9.766,0.000
1759553090.741,16.113,-23.438,-34.668,8.301,0.000
1759553090.745,-19.043,-21.484,-38.086,0.488,0.000
1759553090.749,-12.207,-19.043,-45.410,-4.395,0.000
1759553090.753,12.207,-26.855,-48.828,-5.371,0.000
1759553090.757,3.418,-27.832,-47.852,-5.371,0.000
1759553090.761,-30.273,-26.367,-41.016,-4.883,0.000
1759553090.765,-28.320,-38.574,-41.992,1.465,0.000
1759553090.768,9.766,-37.109,-42.480,7.812,0.000
1759553090.772,18.066,-33.203,-39.062,-0.488,0.000
1759553090.776,-17.578,-42.969,-43.945,-5.371,0.000
1759553090.780,-34.180,-43.945,-54.688,-7.324,0.000
1759553090.784,-5.371,-32.715,-56.152,-8.301,0.000
1759553090.788,18.555,-28.809,-56.152,-9.766,0.000
1759553090.792,-6.348,-29.785,-62.012,-5.859,0.000
1759553090.796,-34.180,-27.344,-51.270,-0.488,0.000
1759553090.800,-12.695,-31.250,-39.062,1.953,0.000
1759553090.804,20.020,-35.645,-43.457,4.395,0.000
1759553090.807,3.906,-34.180,-51.758,1.953,0.000
1759553090.811,-26.367,-31.738,-47.363,8.789,0.000
1759553090.815,-14.160,-21.973,-39.551,9.766,0.000
1759553090.819,25.391,-12.695,-42.480,7.324,0.000
1759553090.823,27.344,-9.766,-53.711,12.695,0.000
1759553090.827,-17.090,-11.230,-56.641,11.230,0.000
1759553090.831,-32.227,-18.066,-49.316,6.348,0.000
1759553090.835,0.000,-17.090,-55.176,2.930,0.000
1759553090.839,11.719,-19.043,-59.570,2.930,0.000
1759553090.843,-20.020,-29.785,-54.688,-4.883,0.000
1759553090.847,-34.668,-33.691,-54.199,-17.578,0.000
1759553090.850,-7.812,-30.273,-60.547,-19.531,0.000
1759553090.854,25.879,-32.715,-66.895,-2.930,0.000
1759553090.858,8.301,-30.273,-60.547,-5.371,0.000
1759553090.862,-27.344,-20.508,-50.293,-19.043,0.000
1759553090.866,-13.672,-20.996,-52.246,-12.695,0.000
1759553090.870,20.020,-19.531,-56.152,-4.883,0.000
1759553090.874,11.719,-18.555,-57.617,-0.977,0.000
1759553090.878,-24.902,-17.578,-52.246,-8.301,0.000
1759553090.882,-27.832,-23.438,-53.223,-10.742,0.000
1759553090.886,2.930,-33.691,-59.082,-8.301,0.000
1759553090.890,7.324,-31.738,-52.246,-8.301,0.000
1759553090.893,-27.832,-28.809,-41.504,-4.395,0.000
1759553090.897,-29.297,-33.691,-41.992,4.395,0.000
1759553090.901,6.836,-39.551,-54.688,5.859,0.000
1759553090.905,19.043,-35.156,-52.246,-1.953,0.000
1759553090.909,-8.789,-23.926,-45.410,-8.301,0.000
1759553090.913,-20.508,-18.555,-47.852,-1.953,0.000
1759553090.917,11.230,-13.184,-56.152,1.465,0.000
1759553090.921,42.969,-10.254,-59.570,1.465,0.000
1759553090.925,20.996,-19.043,-55.664,5.371,0.000
1759553090.929,-8.789,-23.926,-53.711,4.395,0.000
1759553090.932,5.371,-15.625,-53.223,2.930,0.000
1759553090.936,22.949,-13.672,-52.734,0.488,0.000
1759553090.940,7.324,-20.996,-52.246,0.000,0.000
1759553090.944,-17.578,-20.996,-49.805,8.789,0.000
1759553090.948,-16.602,-20.508,-42.969,5.371,0.000
1759553090.952,13.184,-21.973,-41.992,-5.371,0.000
1759553090.956,30.273,-18.066,-42.480,1.953,0.000
1759553090.960,0.000,-16.113,-42.480,7.812,0.000
1759553090.964,-17.090,-7.812,-42.969,5.859,0.000
1759553090.968,14.160,-9.766,-50.293,6.836,0.000
1759553090.972,32.715,-20.508,-61.035,10.742,0.000
1759553090.975,7.324,-19.043,-52.734,17.578,0.000
1759553090.979,-13.672,-16.113,-41.992,15.625,0.000
1759553090.983,0.977,-16.113,-42.480,6.348,0.000
1759553090.987,27.344,-24.414,-46.387,8.301,0.000
1759553090.991,11.230,-29.785,-49.316,2.441,0.000
1759553090.995,-24.414,-24.414,-41.016,-4.395,0.000
1759553090.999,-18.066,-18.066,-32.227,-2.930,0.000
1759553091.003,19.043,-15.625,-38.574,3.418,0.000
1759553091.007,19.531,-16.113,-45.410,1.465,0.000
1759553091.011,-24.414,-16.602,-41.016,-16.602,0.000
1759553091.015,-33.203,-16.602,-42.969,-21.484,0.000
1759553091.018,8.301,-20.020,-49.316,-15.625,0.000
1759553091.022,17.090,-20.508,-48.828,-11.230,0.000
1759553091.026,-20.996,-16.602,-41.992,-14.160,0.000
1759553091.030,-36.133,-22.461,-39.551,-17.090,0.000
1759553091.034,-11.719,-27.832,-51.758,-14.160,0.000
1759553091.038,13.672,-22.949,-58.105,-9.766,0.000
1759553091.042,-9.277,-27.344,-55.176,-12.695,0.000
1759553091.046,-40.527,-30.762,-55.664,-18.555,0.000
1759553091.050,-14.160,-34.180,-62.012,-2.930,0.000
1759553091.054,22.949,-33.203,-61.035,4.395,0.000
1759553091.057,3.906,-24.414,-50.781,-8.301,0.000
1759553091.061,-24.902,-27.344,-45.410,-5.859,0.000
1759553091.065,-15.137,-28.320,-40.039,-3.418,0.000
1759553091.069,17.578,-26.367,-42.969,-6.348,0.000
1759553091.073,12.695,-35.156,-51.758,-12.207,0.000
1759553091.077,-22.461,-38.086,-48.828,-12.695,0.000
1759553091.081,-30.273,-32.227,-43.945,-14.160,0.000
1759553091.085,0.488,-33.691,-48.828,-11.719,0.000
1759553091.089,12.207,-33.691,-44.922,-5.859,0.000
1759553091.093,-17.578,-29.785,-40.527,-3.906,0.000
1759553091.097,-32.227,-32.227,-40.527,-1.465,0.000
1759553091.100,-6.836,-32.715,-33.203,-3.418,0.000
1759553091.104,14.648,-27.344,-32.227,1.465,0.000
1759553091.108,-10.742,-19.531,-36.621,1.465,0.000
1759553091.112,-38.574,-18.555,-34.668,-2.441,0.000
1759553091.116,-24.902,-23.438,-31.250,-7.812,0.000
1759553091.120,10.742,-28.320,-38.086,-7.812,0.000
1759553091.124,0.488,-23.438,-38.086,4.395,0.000
1759553091.128,-24.414,-17.090,-31.738,6.836,0.000
1759553091.132,-13.184,-22.949,-37.109,3.418,0.000
1759553091.136,13.672,-21.973,-38.086,2.441,0.000
1759553091.140,27.344,-21.484,-39.062,11.719,0.000
1759553091.143,-6.348,-27.832,-32.227,12.207,0.000
1759553091.147,-26.855,-26.367,-18.066,3.906,0.000
1759553091.151,2.441,-21.973,-25.879,6.348,0.000
1759553091.155,22.461,-33.691,-39.551,7.812,0.000
1759553091.159,-7.324,-35.156,-35.645,1.465,0.000
1759553091.163,-24.414,-16.113,-24.414,1.465,0.000
1759553091.167,3.906,-16.113,-29.785,3.418,0.000
1759553091.171,26.855,-23.438,-33.691,-4.883,0.000
1759553091.175,6.836,-21.484,-21.973,-5.859,0.000
1759553091.179,-28.809,-20.996,-17.578,-14.648,0.000
1759553091.182,-20.020,-10.254,-16.113,-20.020,0.000
1759553091.186,13.184,-6.348,-7.324,-4.395,0.000
1759553091.190,-1.465,-14.160,-9.277,-11.719,0.000
1759553091.194,-50.293,-18.555,9.277,-35.645,0.000
1759553091.198,-68.359,6.836,18.555,-53.223,0.000
1759553091.202,-48.340,2.441,-17.090,-62.988,0.000
1759553091.206,-57.129,-8.789,-14.160,-78.613,0.000
1759553091.210,-122.070,18.066,-0.488,-116.699,0.000
1759553091.214,-155.273,22.949,-5.859,-136.230,0.000
1759553091.218,-148.926,12.207,-4.395,-151.855,0.000
1759553091.222,-148.926,30.762,3.906,-174.805,0.000
1759553091.225,-185.059,52.734,2.441,-188.965,0.000
1759553091.229,-237.305,57.129,-12.695,-206.543,0.000
1759553091.233,-239.746,64.453,-8.301,-223.633,0.000
1759553091.237,-231.934,73.730,7.812,-248.535,0.000
1759553091.241,-260.254,69.824,-4.395,-262.207,0.000
1759553091.245,-283.691,69.336,-13.672,-255.371,0.000
1759553091.249,-254.395,78.125,-11.719,-237.305,0.000
1759553091.253,-205.078,81.543,-10.254,-223.145,0.000
1759553091.257,-203.613,73.730,-14.160,-218.262,0.000
1759553091.261,-230.469,64.941,-22.461,-209.961,0.000
1759553091.265,-211.426,56.152,-17.090,-193.848,0.000
1759553091.268,-153.320,42.969,-14.160,-163.086,0.000
1759553091.272,-125.000,32.715,-16.113,-133.789,0.000
1759553091.276,-141.602,20.020,-18.555,-121.094,0.000
1759553091.280,-140.625,14.648,-16.602,-115.234,0.000
1759553091.284,-96.191,8.301,-20.020,-101.074,0.000
1759553091.288,-52.246,-5.859,-29.785,-79.102,0.000
1759553091.292,-51.758,-11.719,-26.367,-51.758,0.000
1759553091.296,-60.059,-16.602,-25.879,-38.574,0.000
1759553091.300,-24.414,-16.602,-35.156,-30.762,0.000
1759553091.304,29.785,-23.926,-43.945,-2.441,0.000
1759553091.307,20.508,-38.574,-48.828,10.742,0.000
1759553091.311,-10.254,-43.457,-46.875,9.766,0.000
1759553091.315,13.184,-44.922,-50.781,26.855,0.000
1759553091.319,63.477,-53.711,-61.523,53.711,0.000
1759553091.323,68.359,-61.035,-60.547,56.641,0.000
1759553091.327,46.387,-59.570,-50.781,55.664,0.000
1759553091.331,51.270,-65.918,-53.711,65.430,0.000
1759553091.335,83.496,-71.777,-58.594,73.730,0.000
1759553091.339,103.027,-67.871,-58.105,78.613,0.000
1759553091.343,78.125,-63.477,-61.523,77.637,0.000
1759553091.347,64.941,-63.477,-60.547,79.102,0.000
1759553091.350,95.703,-65.430,-60.059,83.008,0.000
1759553091.354,126.953,-61.523,-62.500,89.355,0.000
1759553091.358,104.004,-58.594,-59.570,85.938,0.000
1759553091.362,77.148,-61.035,-58.105,80.566,0.000
1759553091.366,98.145,-60.547,-60.059,86.426,0.000
1759553091.370,128.906,-61.523,-62.988,86.914,0.000
1759553091.374,111.328,-57.617,-55.664,83.008,0.000
1759553091.378,81.543,-50.781,-52.734,88.379,0.000
1759553091.382,87.402,-49.316,-59.082,98.145,0.000
1759553091.386,113.770,-42.969,-53.711,87.402,0.000
1759553091.390,110.352,-48.340,-53.223,74.219,0.000
1759553091.393,72.754,-58.105,-51.758,73.242,0.000
1759553091.397,57.129,-59.082,-45.410,71.777,0.000
1759553091.401,79.590,-61.035,-44.922,66.406,0.000
1759553091.405,99.121,-58.105,-46.387,66.406,0.000
1759553091.409,69.336,-54.199,-49.316,73.730,0.000
1759553091.413,43.945,-56.152,-51.758,64.453,0.000
1759553091.417,70.312,-51.758,-50.293,56.641,0.000
1759553091.421,94.727,-51.758,-57.129,59.082,0.000
1759553091.425,71.777,-54.688,-69.336,63.477,0.000
1759553091.429,41.016,-49.316,-63.477,61.035,0.000
1759553091.432,52.246,-41.992,-58.105,46.875,0.000
1759553091.436,83.984,-51.270,-67.871,43.457,0.000
1759553091.440,75.684,-58.594,-64.941,51.270,0.000
1759553091.444,43.945,-47.363,-51.758,53.711,0.000
1759553091.448,39.062,-45.898,-51.270,46.387,0.000
1759553091.452,66.406,-47.363,-57.617,48.340,0.000
1759553091.456,68.848,-42.480,-62.988,46.387,0.000
1759553091.460,29.297,-46.875,-62.988,31.250,0.000
1759553091.464,19.043,-42.969,-54.688,31.250,0.000
1759553091.468,49.805,-20.508,-38.086,43.457,0.000
1759553091.472,72.754,-22.461,-32.715,52.734,0.000
1759553091.475,41.016,-27.832,-39.551,45.898,0.000
1759553091.479,-1.953,-27.832,-33.203,20.996,0.000
1759553091.483,13.672,-28.809,-42.969,16.113,0.000
1759553091.487,33.203,-29.785,-33.203,15.137,0.000
1759553091.491,-1.465,-24.414,-7.812,-3.418,0.000
1759553091.495,-60.547,-8.789,-3.418,-37.109,0.000
1759553091.499,-79.590,-6.348,-6.836,-67.383,0.000
1759553091.503,-65.918,-5.371,-14.160,-91.797,0.000
1759553091.507,-100.586,-3.906,-10.742,-121.582,0.000
1759553091.511,-158.691,9.766,2.930,-150.879,0.000
1759553091.515,-178.223,17.090,2.930,-164.551,0.000
1759553091.518,-172.852,23.438,3.906,-187.012,0.000
1759553091.522,-175.293,46.875,19.531,-207.520,0.000
1759553091.526,-213.379,48.340,22.949,-209.961,0.000
1759553091.530,-233.887,46.387,23.438,-213.867,0.000
1759553091.534,-198.730,57.129,23.926,-204.590,0.000
1759553091.538,-176.758,53.223,26.367,-200.195,0.000
1759553091.542,-199.707,48.340,24.902,-192.383,0.000
1759553091.546,-214.844,45.898,21.484,-179.199,0.000
1759553091.550,-179.688,48.340,19.043,-171.387,0.000
1759553091.554,-132.812,46.875,9.277,-164.062,0.000
1759553091.557,-125.488,37.109,4.883,-145.508,0.000
1759553091.561,-145.508,24.902,10.254,-124.023,0.000
1759553091.565,-131.348,12.695,15.137,-108.887,0.000
1759553091.569,-80.078,5.859,4.883,-93.262,0.000
1759553091.573,-62.012,-1.953,-8.789,-76.172,0.000
1759553091.577,-77.148,-4.883,-14.648,-58.105,0.000
1759553091.581,-60.547,-6.348,-20.508,-32.227,0.000
1759553091.585,-10.254,-16.602,-30.273,-8.789,0.000
1759553091.589,18.066,-28.320,-38.574,2.441,0.000
1759553091.593,0.000,-30.762,-41.504,8.789,0.000
1759553091.597,-11.719,-29.785,-43.457,15.137,0.000
1759553091.600,21.484,-42.969,-45.898,25.879,0.000
1759553091.604,59.082,-47.852,-51.270,53.711,0.000
1759553091.608,37.598,-48.340,-52.734,54.199,0.000
1759553091.612,9.766,-47.852,-34.668,38.574,0.000
1759553091.616,47.852,-48.340,-32.227,55.176,0.000
1759553091.620,82.520,-52.246,-48.828,67.383,0.000
1759553091.624,77.148,-54.688,-44.434,76.660,0.000
1759553091.628,56.641,-55.664,-30.273,79.590,0.000
1759553091.632,57.617,-57.617,-35.156,75.195,0.000
1759553091.636,89.844,-62.500,-44.434,73.242,0.000
1759553091.640,92.285,-68.848,-41.504,69.824,0.000
1759553091.643,56.152,-67.871,-37.598,71.777,0.000
1759553091.647,52.246,-62.500,-38.574,80.566,0.000
1759553091.651,83.984,-61.523,-40.039,87.891,0.000
1759553091.655,91.797,-62.012,-40.039,80.078,0.000
1759553091.659,63.477,-62.012,-37.598,68.359,0.000
1759553091.663,48.340,-60.059,-38.574,68.359,0.000
1759553091.667,72.754,-54.688,-44.434,68.848,0.000
1759553091.671,97.656,-51.270,-41.504,66.895,0.000
1759553091.675,73.730,-52.734,-36.133,66.895,0.000
1759553091.679,43.945,-54.688,-36.621,65.430,0.000
1759553091.682,53.711,-53.711,-41.504,64.941,0.000
1759553091.686,83.496,-57.129,-46.875,63.965,0.000
1759553091.690,72.754,-62.988,-48.828,60.547,0.000
1759553091.694,39.551,-61.035,-53.223,62.988,0.000
1759553091.698,49.805,-54.688,-52.246,64.941,0.000
1759553091.702,80.566,-54.199,-50.781,62.012,0.000
1759553091.706,83.008,-58.105,-59.082,65.430,0.000
1759553091.710,49.316,-53.711,-59.082,70.801,0.000
1759553091.714,30.273,-47.852,-50.293,67.871,0.000
1759553091.718,55.664,-48.340,-49.805,64.453,0.000
1759553091.722,72.266,-45.898,-54.199,59.570,0.000
1759553091.725,38.086,-47.852,-52.734,53.711,0.000
1759553091.729,9.277,-54.688,-49.316,49.316,0.000
1759553091.733,35.645,-47.852,-48.828,51.270,0.000
1759553091.737,71.289,-44.922,-56.641,50.293,0.000
