timestamps,TP9,AF7,AF8,TP10,Right AUX
1759622138.088,11.719,-49.805,-51.270,4.395,0.000
1759622138.092,-65.430,-53.711,-56.152,14.160,0.000
1759622138.096,-43.457,-52.246,-56.641,18.066,0.000
1759622138.100,38.086,-53.223,-55.176,11.719,0.000
1759622138.104,33.203,-58.105,-60.059,-6.348,0.000
1759622138.107,-40.527,-57.129,-60.059,5.371,0.000
1759622138.111,-51.758,-62.500,-55.664,19.531,0.000
1759622138.115,13.672,-58.594,-50.781,14.160,0.000
1759622138.119,26.855,-52.246,-50.293,4.395,0.000
1759622138.123,-47.852,-52.734,-53.711,9.277,0.000
1759622138.127,-43.457,-54.688,-52.246,24.902,0.000
1759622138.131,11.719,-53.223,-49.805,23.926,0.000
1759622138.131,11.719,-53.223,-49.805,23.926,0.000
1759622138.135,43.945,-49.805,-51.270,8.789,0.000
1759622138.139,2.441,-51.270,-50.781,-4.883,0.000
1759622138.143,-60.059,-54.199,-44.922,22.461,0.000
1759622138.146,-37.109,-55.664,-47.852,23.438,0.000
1759622138.150,21.973,-57.617,-49.316,2.930,0.000
1759622138.154,0.977,-59.082,-49.805,7.324,0.000
1759622138.158,-46.875,-57.129,-53.223,26.855,0.000
1759622138.162,-27.832,-55.664,-51.758,33.203,0.000
1759622138.166,43.457,-45.410,-50.293,17.578,0.000
1759622138.170,45.410,-36.133,-50.781,8.301,0.000
1759622138.174,-39.062,-37.598,-50.781,22.461,0.000
1759622138.178,-60.547,-45.410,-54.199,27.832,0.000
1759622138.182,14.648,-46.387,-52.734,6.836,0.000
1759622138.186,48.340,-44.922,-48.828,-3.906,0.000
1759622138.189,-24.902,-50.293,-52.734,7.324,0.000
1759622138.193,-59.082,-49.805,-57.617,9.766,0.000
1759622138.197,-12.207,-47.852,-66.895,-6.836,0.000
1759622138.201,55.664,-47.363,-68.359,-6.836,0.000
1759622138.205,25.879,-44.922,-62.988,13.184,0.000
1759622138.209,-46.875,-45.410,-58.594,23.438,0.000
1759622138.213,-29.785,-48.340,-55.176,9.766,0.000
1759622138.217,48.828,-43.945,-48.340,0.488,0.000
1759622138.221,23.926,-49.316,-45.898,4.395,0.000
1759622138.225,-54.688,-53.711,-51.270,13.672,0.000
1759622138.228,-43.457,-48.828,-55.176,10.742,0.000
1759622138.232,20.020,-48.828,-55.664,0.000,0.000
1759622138.236,22.461,-44.922,-54.688,-14.648,0.000
1759622138.240,-44.922,-41.504,-56.152,-6.348,0.000
1759622138.244,-66.895,-44.434,-60.059,12.695,0.000
1759622138.248,9.277,-47.363,-58.105,7.324,0.000
1759622138.252,66.406,-47.363,-55.664,-5.371,0.000
1759622138.256,-18.066,-46.875,-54.199,3.418,0.000
1759622138.260,-70.801,-46.387,-46.875,20.996,0.000
1759622138.264,-21.973,-46.387,-45.898,10.254,0.000
1759622138.268,35.645,-42.969,-51.758,-9.277,0.000
1759622138.271,0.488,-41.016,-49.805,1.953,0.000
1759622138.275,-60.059,-40.039,-48.828,24.414,0.000
1759622138.279,-50.781,-43.945,-54.688,6.348,0.000
1759622138.283,20.508,-53.223,-53.223,-13.184,0.000
1759622138.287,21.484,-60.059,-44.434,-16.602,0.000
1759622138.291,-31.738,-61.523,-41.504,21.973,0.000
1759622138.295,-26.367,-45.898,-51.270,60.059,0.000
1759622138.299,8.301,-30.762,-63.477,-5.371,0.000
1759622138.303,7.324,-30.273,-66.406,-64.453,0.000
1759622138.307,-57.129,-23.438,-72.266,-45.898,0.000
1759622138.310,-108.887,-17.090,-83.496,-42.480,0.000
1759622138.314,-58.594,-14.160,-89.844,-70.312,0.000
1759622138.318,-4.395,-11.719,-91.309,-93.750,0.000
1759622138.322,-64.941,-16.113,-93.262,-80.566,0.000
1759622138.326,-97.168,-15.137,-99.609,-49.316,0.000
1759622138.330,-60.547,-13.672,-100.586,-60.547,0.000
1759622138.334,6.348,-11.230,-94.727,-70.312,0.000
1759622138.338,-15.137,-7.812,-92.773,-65.430,0.000
1759622138.342,-74.219,-11.230,-92.285,-38.086,0.000
1759622138.346,-64.941,-16.113,-93.750,-29.297,0.000
1759622138.350,14.648,-23.926,-91.797,-54.688,0.000
1759622138.353,15.137,-27.344,-90.332,-54.688,0.000
1759622138.357,-80.566,-27.344,-89.355,-25.391,0.000
1759622138.361,-88.867,-29.785,-85.449,-17.090,0.000
1759622138.365,-4.395,-28.809,-82.031,-29.297,0.000
1759622138.369,24.414,-27.832,-78.613,-41.504,0.000
1759622138.373,-45.898,-33.203,-81.055,-32.227,0.000
1759622138.377,-62.500,-36.133,-78.613,-13.184,0.000
1759622138.381,-11.719,-35.645,-76.172,-22.949,0.000
1759622138.385,17.578,-35.645,-86.426,-44.434,0.000
1759622138.389,-39.551,-32.715,-90.332,-34.668,0.000
1759622138.393,-86.914,-30.762,-81.543,-6.348,0.000
1759622138.396,-37.109,-33.691,-68.359,-12.207,0.000
1759622138.400,29.297,-40.039,-62.500,-12.207,0.000
1759622138.404,-4.395,-39.551,-62.988,-8.301,0.000
1759622138.408,-60.059,-37.598,-64.453,2.930,0.000
1759622138.412,-53.223,-40.039,-62.500,10.254,0.000
1759622138.416,3.418,-41.992,-59.570,-11.719,0.000
1759622138.420,16.113,-41.504,-62.988,-26.855,0.000
1759622138.424,-46.875,-43.945,-67.383,-11.230,0.000
1759622138.428,-69.824,-43.457,-58.105,11.719,0.000
1759622138.432,-11.230,-39.062,-51.758,-5.371,0.000
1759622138.435,26.855,-38.086,-52.246,-26.855,0.000
1759622138.439,-33.203,-45.410,-52.246,-14.648,0.000
1759622138.443,-64.453,-43.457,-52.246,15.137,0.000
1759622138.447,-9.277,-39.062,-51.270,8.301,0.000
1759622138.451,41.016,-45.898,-53.711,-23.438,0.000
1759622138.455,-4.395,-44.922,-58.594,-13.184,0.000
1759622138.459,-62.500,-41.016,-61.523,8.789,0.000
1759622138.463,-45.898,-45.410,-61.523,-1.465,0.000
1759622138.467,25.391,-46.387,-61.523,-18.066,0.000
1759622138.471,6.348,-40.527,-62.012,-21.973,0.000
1759622138.475,-52.246,-40.039,-57.129,7.812,0.000
1759622138.478,-43.945,-41.016,-57.617,14.160,0.000
1759622138.482,4.395,-41.504,-62.988,-5.859,0.000
1759622138.486,21.484,-44.434,-61.523,-15.137,0.000
1759622138.490,-36.621,-46.387,-57.617,9.766,0.000
1759622138.494,-58.105,-52.246,-60.547,16.113,0.000
1759622138.498,15.137,-49.316,-58.594,-9.766,0.000
1759622138.502,60.547,-43.945,-49.805,-12.695,0.000
1759622138.506,-19.043,-53.711,-53.223,-10.254,0.000
1759622138.510,-67.383,-54.199,-57.129,4.395,0.000
1759622138.514,-15.137,-46.387,-54.199,-1.953,0.000
1759622138.517,48.828,-50.293,-51.270,-12.695,0.000
1759622138.521,20.996,-54.688,-52.734,-2.930,0.000
1759622138.525,-46.875,-47.363,-51.758,18.066,0.000
1759622138.529,-37.109,-41.992,-47.363,15.625,0.000
1759622138.533,35.645,-44.922,-48.828,-2.441,0.000
1759622138.537,23.438,-47.852,-52.734,-9.277,0.000
1759622138.541,-63.477,-48.828,-53.711,-4.883,0.000
1759622138.545,-72.266,-49.805,-49.805,12.207,0.000
1759622138.549,13.672,-47.363,-51.758,-3.418,0.000
1759622138.553,27.832,-42.969,-56.152,-23.438,0.000
1759622138.557,-61.523,-47.363,-53.711,-9.277,0.000
1759622138.560,-81.543,-53.223,-53.223,9.277,0.000
1759622138.564,3.906,-51.270,-51.270,3.906,0.000
1759622138.568,41.504,-50.781,-47.852,-15.625,0.000
1759622138.572,-21.484,-50.293,-47.363,-1.953,0.000
1759622138.576,-53.223,-48.340,-43.945,27.832,0.000
1759622138.580,-26.367,-51.270,-41.016,19.043,0.000
1759622138.584,32.227,-48.828,-44.922,2.930,0.000
1759622138.588,3.906,-47.852,-48.340,-2.930,0.000
1759622138.592,-58.594,-48.828,-49.316,13.672,0.000
1759622138.596,-35.156,-45.898,-50.293,15.137,0.000
1759622138.599,28.809,-44.434,-47.852,-3.418,0.000
1759622138.603,20.996,-43.457,-46.875,-14.160,0.000
1759622138.607,-37.598,-40.039,-42.480,6.348,0.000
1759622138.611,-60.059,-43.457,-45.898,16.113,0.000
1759622138.615,-0.977,-52.246,-53.223,-7.812,0.000
1759622138.619,30.273,-55.664,-47.852,-20.996,0.000
1759622138.623,-35.645,-49.316,-43.457,-6.348,0.000
1759622138.627,-65.918,-44.434,-44.434,16.602,0.000
1759622138.631,-17.090,-43.945,-48.828,2.441,0.000
1759622138.635,35.156,-46.387,-46.875,-15.625,0.000
1759622138.639,-16.602,-52.734,-47.363,-18.066,0.000
1759622138.642,-60.547,-55.664,-54.199,-1.953,0.000
1759622138.646,-23.438,-56.152,-53.711,-10.254,0.000
1759622138.650,31.250,-49.316,-47.363,-23.438,0.000
1759622138.654,2.930,-45.410,-47.363,-21.484,0.000
1759622138.658,-49.316,-48.828,-52.246,-1.465,0.000
1759622138.662,-46.875,-49.805,-56.641,-2.441,0.000
1759622138.666,13.184,-48.828,-63.965,-23.438,0.000
1759622138.670,14.648,-49.805,-63.965,-18.066,0.000
1759622138.674,-67.383,-54.199,-66.895,-6.348,0.000
1759622138.678,-71.289,-53.711,-68.848,-13.184,0.000
1759622138.681,-7.324,-50.293,-63.965,-27.832,0.000
1759622138.685,24.414,-51.758,-65.918,-34.668,0.000
1759622138.689,-40.039,-50.293,-65.918,-21.973,0.000
1759622138.693,-79.590,-50.293,-64.941,-8.789,0.000
1759622138.697,-28.809,-52.246,-62.500,-18.555,0.000
1759622138.701,26.367,-45.410,-60.059,-26.367,0.000
1759622138.705,-21.973,-44.434,-62.988,-20.020,0.000
1759622138.709,-79.590,-47.852,-58.105,7.812,0.000
1759622138.713,-47.363,-39.062,-57.617,14.160,0.000
1759622138.717,30.273,-44.922,-63.477,-17.090,0.000
1759622138.721,20.020,-53.223,-62.012,-22.461,0.000
1759622138.724,-55.176,-46.387,-63.477,5.859,0.000
1759622138.728,-62.012,-49.805,-62.012,14.160,0.000
1759622138.732,13.672,-54.199,-53.711,0.977,0.000
1759622138.736,16.113,-57.129,-54.688,-19.531,0.000
1759622138.740,-50.293,-57.617,-53.711,-5.371,0.000
1759622138.744,-59.082,-52.734,-50.781,7.812,0.000
1759622138.748,2.930,-48.340,-53.223,-13.672,0.000
1759622138.752,44.434,-47.852,-54.688,-34.668,0.000
1759622138.756,-43.457,-44.922,-53.711,-28.320,0.000
1759622138.760,-94.238,-41.016,-51.758,-1.953,0.000
1759622138.764,-38.086,-40.039,-51.758,-5.371,0.000
1759622138.767,22.461,-41.016,-54.688,-22.461,0.000
1759622138.771,-18.066,-44.434,-53.223,-22.461,0.000
1759622138.775,-69.824,-43.945,-49.805,12.207,0.000
1759622138.779,-31.738,-44.434,-52.246,3.906,0.000
1759622138.783,42.480,-48.340,-59.082,-28.809,0.000
1759622138.787,17.090,-52.734,-56.641,-22.461,0.000
1759622138.791,-74.707,-54.199,-48.340,-5.859,0.000
1759622138.795,-87.402,-51.270,-51.270,-9.277,0.000
1759622138.799,0.000,-50.293,-53.711,-21.484,0.000
1759622138.803,30.762,-45.898,-50.293,-22.461,0.000
1759622138.806,-37.598,-39.551,-51.758,-5.859,0.000
1759622138.810,-53.223,-42.969,-48.828,10.742,0.000
1759622138.814,-6.836,-50.293,-50.781,-14.648,0.000
1759622138.818,22.461,-52.246,-57.129,-30.273,0.000
1759622138.822,-22.949,-44.922,-55.664,-5.371,0.000
1759622138.826,-61.523,-38.574,-59.570,-3.418,0.000
1759622138.830,-28.320,-37.598,-60.059,-15.625,0.000
1759622138.834,39.551,-35.645,-53.223,-18.555,0.000
1759622138.838,12.207,-35.645,-52.246,-9.766,0.000
1759622138.842,-54.688,-46.875,-54.688,11.230,0.000
1759622138.846,-45.898,-47.852,-54.199,5.859,0.000
1759622138.849,14.648,-41.992,-58.105,-11.230,0.000
1759622138.853,14.648,-42.969,-56.641,-25.391,0.000
1759622138.857,-45.898,-41.016,-50.781,-1.465,0.000
1759622138.861,-52.246,-41.992,-52.734,17.090,0.000
1759622138.865,15.137,-43.457,-53.711,0.488,0.000
1759622138.869,29.785,-42.969,-55.664,-16.602,0.000
1759622138.873,-41.992,-42.480,-59.082,-3.418,0.000
1759622138.877,-62.500,-44.434,-56.641,23.438,0.000
1759622138.881,-2.930,-44.434,-56.641,6.348,0.000
1759622138.885,54.688,-47.363,-57.617,-15.137,0.000
1759622138.889,-0.977,-52.246,-49.316,-6.836,0.000
1759622138.892,-78.613,-47.852,-48.340,22.949,0.000
1759622138.896,-45.898,-45.410,-51.758,16.602,0.000
1759622138.900,16.602,-47.852,-52.734,-3.906,0.000
1759622138.904,-10.742,-47.363,-54.688,-11.719,0.000
1759622138.908,-54.199,-46.875,-54.199,4.883,0.000
1759622138.912,-44.434,-52.734,-55.664,12.695,0.000
1759622138.916,24.902,-44.434,-52.734,-8.789,0.000
1759622138.920,31.738,-39.551,-48.828,-20.020,0.000
1759622138.924,-51.270,-50.781,-49.316,1.465,0.000
1759622138.928,-76.172,-50.293,-46.875,11.719,0.000
1759622138.931,-0.977,-42.969,-45.898,-8.301,0.000
1759622138.935,35.645,-41.992,-47.363,-8.301,0.000
1759622138.939,-29.297,-42.969,-45.410,11.719,0.000
1759622138.943,-62.012,-51.270,-49.316,21.973,0.000
1759622138.947,-6.836,-55.176,-48.828,0.000,0.000
1759622138.951,41.016,-53.223,-49.316,-17.578,0.000
1759622138.955,-7.324,-57.617,-50.293,-0.488,0.000
1759622138.959,-62.500,-54.688,-43.457,24.414,0.000
1759622138.963,-43.945,-48.828,-40.527,8.789,0.000
1759622138.967,23.438,-49.316,-45.898,-10.742,0.000
1759622138.971,6.348,-47.363,-51.758,-11.719,0.000
1759622138.974,-57.129,-41.992,-50.293,6.348,0.000
1759622138.978,-63.477,-43.457,-49.805,5.371,0.000
1759622138.982,8.301,-50.781,-53.223,-7.324,0.000
1759622138.986,27.832,-49.805,-57.617,-19.531,0.000
1759622138.990,-43.457,-40.039,-55.176,-10.742,0.000
1759622138.994,-62.500,-37.109,-54.688,9.277,0.000
1759622138.998,-0.488,-39.062,-53.711,-3.418,0.000
1759622139.002,32.715,-43.457,-57.129,-22.461,0.000
1759622139.006,-25.879,-43.457,-63.477,-19.531,0.000
1759622139.010,-71.777,-45.410,-62.012,-5.371,0.000
1759622139.013,-24.414,-50.293,-60.059,-5.371,0.000
1759622139.017,40.527,-45.410,-57.617,-2.930,0.000
1759622139.021,-9.277,-41.992,-57.617,-10.254,0.000
1759622139.025,-66.406,-41.504,-58.105,-3.418,0.000
1759622139.029,-32.227,-37.598,-50.293,7.324,0.000
1759622139.033,37.109,-39.551,-53.223,2.441,0.000
1759622139.037,13.672,-43.457,-57.129,-8.301,0.000
1759622139.041,-49.316,-45.898,-53.711,4.883,0.000
1759622139.045,-53.711,-46.875,-52.246,11.230,0.000
1759622139.049,17.090,-46.387,-54.688,-1.465,0.000
1759622139.053,38.574,-44.434,-58.594,-19.531,0.000
1759622139.056,-44.922,-49.316,-61.035,-4.883,0.000
1759622139.060,-71.289,-52.734,-55.664,24.902,0.000
1759622139.064,-12.695,-45.410,-52.734,-1.465,0.000
1759622139.068,31.250,-43.457,-52.246,-18.555,0.000
1759622139.072,-18.555,-46.875,-49.316,-0.977,0.000
1759622139.076,-63.477,-45.898,-52.246,4.395,0.000
1759622139.080,-27.832,-44.922,-48.828,-11.719,0.000
1759622139.084,35.645,-43.945,-41.992,-28.809,0.000
1759622139.088,10.742,-48.340,-44.922,-19.531,0.000
1759622139.092,-48.828,-45.410,-48.828,8.789,0.000
1759622139.096,-38.086,-42.969,-55.664,0.000,0.000
1759622139.099,29.785,-47.852,-62.988,-26.855,0.000
1759622139.103,12.207,-48.340,-63.477,-29.785,0.000
1759622139.107,-54.688,-46.875,-66.895,1.465,0.000
1759622139.111,-57.129,-46.387,-64.453,1.953,0.000
1759622139.115,10.742,-50.781,-56.152,-12.207,0.000
1759622139.119,40.527,-50.293,-49.805,-20.020,0.000
1759622139.123,-34.180,-52.246,-46.875,-9.277,0.000
1759622139.127,-81.055,-54.199,-45.410,3.418,0.000
1759622139.131,-20.996,-50.293,-46.387,-9.277,0.000
1759622139.135,32.715,-47.363,-53.711,-18.555,0.000
1759622139.138,-36.621,-48.340,-63.965,-13.184,0.000
1759622139.142,-81.055,-53.711,-67.871,0.000,0.000
1759622139.146,-33.203,-55.176,-66.895,-17.578,0.000
1759622139.150,30.762,-55.176,-63.477,-25.879,0.000
1759622139.154,-5.371,-60.547,-57.617,-21.484,0.000
1759622139.158,-77.637,-54.199,-52.734,-5.371,0.000
1759622139.162,-65.430,-47.363,-53.223,-0.488,0.000
1759622139.166,19.531,-45.898,-56.641,-20.996,0.000
1759622139.170,36.621,-38.574,-54.688,-30.273,0.000
1759622139.174,-44.434,-36.133,-57.617,-16.602,0.000
1759622139.178,-73.242,-39.062,-63.477,0.000,0.000
1759622139.181,6.348,-38.086,-62.988,-5.371,0.000
1759622139.185,40.527,-41.504,-58.594,-20.020,0.000
1759622139.189,-36.133,-45.410,-53.223,-9.766,0.000
1759622139.193,-71.289,-42.969,-53.711,10.254,0.000
1759622139.197,-29.785,-43.457,-56.152,1.953,0.000
1759622139.201,21.484,-46.387,-56.641,-20.996,0.000
1759622139.205,-13.184,-45.410,-54.688,-17.578,0.000
1759622139.209,-72.266,-45.898,-56.152,3.418,0.000
1759622139.213,-41.992,-48.340,-57.617,-1.953,0.000
1759622139.217,30.762,-52.246,-55.176,-16.602,0.000
1759622139.220,11.230,-56.152,-58.594,-17.090,0.000
1759622139.224,-47.852,-49.316,-56.641,17.578,0.000
1759622139.228,-51.270,-46.875,-51.270,14.160,0.000
1759622139.232,15.625,-47.363,-56.152,-17.090,0.000
1759622139.236,25.879,-44.922,-57.617,-24.414,0.000
1759622139.240,-47.852,-44.922,-54.688,-1.465,0.000
1759622139.244,-62.012,-43.457,-57.617,19.531,0.000
1759622139.248,11.230,-43.945,-53.223,-0.488,0.000
1759622139.252,39.551,-42.969,-46.875,-12.207,0.000
1759622139.256,-37.598,-38.574,-45.410,-4.883,0.000
1759622139.260,-67.383,-39.551,-43.945,18.555,0.000
1759622139.263,-20.996,-39.062,-45.898,15.625,0.000
1759622139.267,30.273,-36.133,-51.758,-14.160,0.000
1759622139.271,-0.488,-36.133,-54.688,-19.531,0.000
1759622139.275,-57.617,-35.645,-53.223,-1.953,0.000
1759622139.279,-49.316,-41.504,-56.152,-9.277,0.000
1759622139.283,16.602,-44.434,-55.664,-25.879,0.000
1759622139.287,3.418,-43.945,-55.176,-23.438,0.000
1759622139.291,-63.965,-42.480,-56.641,-13.184,0.000
1759622139.295,-62.500,-34.180,-53.223,-19.531,0.000
1759622139.299,8.789,-41.016,-46.875,-28.809,0.000
1759622139.302,13.184,-40.039,-52.734,-37.109,0.000
1759622139.306,-69.336,-43.945,-54.688,-38.086,0.000
1759622139.310,-89.844,-41.016,-39.062,-28.809,0.000
1759622139.314,-37.598,-31.738,-42.969,-30.273,0.000
1759622139.318,-0.977,-39.062,-47.852,-53.223,0.000
1759622139.322,-66.895,-40.039,-43.945,-74.707,0.000
1759622139.326,-138.672,-38.574,-47.852,-73.242,0.000
1759622139.330,-109.375,-34.180,-47.852,-93.262,0.000
1759622139.334,-70.801,-32.715,-34.180,-133.301,0.000
1759622139.338,-124.023,-26.855,-21.484,-145.508,0.000
1759622139.342,-185.059,-25.391,-27.344,-127.441,0.000
1759622139.345,-183.594,-36.133,-39.551,-142.090,0.000
1759622139.349,-130.371,-36.133,-41.992,-174.316,0.000
1759622139.353,-150.879,-32.227,-39.551,-199.707,0.000
1759622139.357,-241.699,-27.832,-31.250,-202.148,0.000
1759622139.361,-257.324,-23.438,-25.879,-196.777,0.000
1759622139.365,-195.801,-21.973,-28.320,-226.074,0.000
1759622139.369,-195.801,-14.648,-26.855,-247.070,0.000
1759622139.373,-265.137,-14.648,-30.762,-223.633,0.000
1759622139.377,-279.785,-6.348,-33.691,-196.777,0.000
1759622139.381,-228.516,-3.418,-31.738,-209.961,0.000
1759622139.384,-187.500,-10.254,-28.809,-231.445,0.000
1759622139.388,-235.840,-13.184,-28.809,-217.285,0.000
1759622139.392,-261.719,-15.137,-31.738,-182.129,0.000
1759622139.396,-209.473,-10.254,-35.645,-179.688,0.000
1759622139.400,-125.000,-10.254,-34.668,-183.594,0.000
1759622139.404,-132.812,-15.137,-36.621,-165.527,0.000
1759622139.408,-188.477,-20.508,-38.574,-129.395,0.000
1759622139.412,-167.480,-27.344,-39.551,-119.141,0.000
1759622139.416,-91.309,-25.391,-39.551,-113.281,0.000
1759622139.420,-75.195,-24.902,-46.875,-94.238,0.000
1759622139.424,-115.234,-40.039,-52.734,-59.082,0.000
1759622139.427,-103.027,-47.852,-48.340,-29.297,0.000
1759622139.431,-17.090,-45.410,-50.293,-32.715,0.000
1759622139.435,29.785,-47.852,-56.152,-27.832,0.000
1759622139.439,-18.555,-44.434,-56.152,4.395,0.000
1759622139.443,-55.664,-47.363,-57.617,35.156,0.000
1759622139.447,-0.977,-53.711,-60.547,23.926,0.000
1759622139.451,69.336,-52.734,-61.523,20.996,0.000
1759622139.455,41.016,-54.688,-58.594,37.109,0.000
1759622139.459,2.441,-59.082,-54.199,52.246,0.000
1759622139.463,18.066,-61.523,-59.570,58.105,0.000
1759622139.467,85.449,-56.152,-64.453,62.988,0.000
1759622139.470,62.988,-61.035,-63.477,63.477,0.000
1759622139.474,-3.906,-63.477,-62.012,70.312,0.000
1759622139.478,29.785,-62.012,-58.594,84.961,0.000
1759622139.482,89.355,-71.777,-62.988,72.754,0.000
1759622139.486,75.684,-75.195,-71.777,50.781,0.000
1759622139.490,25.391,-69.336,-67.383,66.895,0.000
1759622139.494,18.066,-62.500,-60.547,88.379,0.000
1759622139.498,87.891,-66.895,-63.965,65.430,0.000
1759622139.502,119.141,-70.801,-64.941,47.363,0.000
1759622139.506,46.387,-74.219,-59.570,73.242,0.000
1759622139.509,11.230,-77.637,-56.152,86.914,0.000
1759622139.513,60.547,-64.941,-56.152,77.637,0.000
1759622139.517,126.953,-60.547,-58.105,74.707,0.000
1759622139.521,88.867,-62.500,-53.223,70.312,0.000
1759622139.525,40.527,-54.199,-47.852,94.727,0.000
1759622139.529,63.477,-52.734,-52.734,93.262,0.000
1759622139.533,104.004,-53.711,-60.059,66.406,0.000
1759622139.537,73.730,-54.199,-62.500,57.617,0.000
1759622139.541,11.230,-53.711,-62.012,69.824,0.000
1759622139.545,17.578,-54.199,-60.547,84.961,0.000
1759622139.549,83.984,-52.246,-58.105,63.477,0.000
1759622139.552,100.098,-54.199,-53.223,52.734,0.000
1759622139.556,38.086,-64.453,-52.734,73.730,0.000
1759622139.560,13.672,-63.965,-57.129,76.660,0.000
1759622139.564,59.082,-62.012,-57.617,52.246,0.000
1759622139.568,101.074,-66.406,-52.734,39.551,0.000
1759622139.572,49.805,-63.965,-52.734,50.781,0.000
1759622139.576,-14.160,-60.059,-54.688,46.387,0.000
1759622139.580,14.648,-63.965,-52.734,21.973,0.000
1759622139.584,93.750,-59.570,-53.711,24.902,0.000
1759622139.588,60.059,-54.688,-59.570,24.902,0.000
1759622139.591,11.230,-56.641,-63.965,22.949,0.000
1759622139.595,28.320,-53.711,-63.477,31.738,0.000
1759622139.599,62.988,-61.523,-66.895,19.531,0.000
1759622139.603,52.734,-66.895,-68.848,0.977,0.000
1759622139.607,-9.766,-62.012,-67.383,10.742,0.000
1759622139.611,-19.043,-57.617,-67.871,19.531,0.000
1759622139.615,40.527,-57.617,-72.754,13.184,0.000
1759622139.619,58.105,-58.594,-74.707,9.766,0.000
1759622139.623,4.883,-51.270,-67.383,14.160,0.000
1759622139.627,-21.484,-48.340,-61.523,25.391,0.000
1759622139.631,24.902,-53.711,-64.453,14.160,0.000
1759622139.634,67.871,-59.082,-65.430,-3.906,0.000
1759622139.638,7.812,-57.617,-64.453,0.977,0.000
1759622139.642,-36.133,-59.570,-62.988,18.066,0.000
1759622139.646,3.418,-57.129,-62.012,14.160,0.000
1759622139.650,65.430,-50.781,-62.988,-1.953,0.000
1759622139.654,25.879,-50.293,-62.500,-3.418,0.000
1759622139.658,-36.621,-54.688,-64.941,13.672,0.000
1759622139.662,-16.602,-55.664,-61.523,24.414,0.000
1759622139.666,63.477,-53.711,-57.129,13.672,0.000
1759622139.670,67.383,-47.852,-60.547,-4.395,0.000
1759622139.673,-32.715,-49.805,-60.547,7.812,0.000
1759622139.677,-49.805,-51.758,-58.105,17.090,0.000
1759622139.681,24.414,-48.340,-59.082,-7.812,0.000
1759622139.685,51.758,-52.246,-60.547,-8.301,0.000
1759622139.689,-1.953,-52.734,-58.105,11.719,0.000
1759622139.693,-24.414,-55.664,-57.617,20.508,0.000
1759622139.697,18.555,-57.617,-57.617,3.906,0.000
1759622139.701,63.477,-52.246,-58.105,-10.742,0.000
1759622139.705,9.277,-50.293,-54.688,11.719,0.000
1759622139.709,-46.875,-56.152,-54.199,15.137,0.000
1759622139.713,-25.879,-59.570,-55.664,-7.812,0.000
1759622139.716,33.203,-58.105,-53.223,-6.836,0.000
1759622139.720,15.137,-60.059,-51.270,-2.930,0.000
1759622139.724,-54.688,-58.594,-51.758,1.465,0.000
1759622139.728,-39.551,-58.594,-55.176,-3.418,0.000
1759622139.732,42.969,-56.641,-58.594,-13.672,0.000
1759622139.736,27.344,-52.734,-58.594,-18.066,0.000
1759622139.740,-51.758,-56.152,-60.547,-11.719,0.000
1759622139.744,-59.082,-57.129,-57.617,4.395,0.000
1759622139.748,11.719,-57.617,-54.688,-0.488,0.000
1759622139.752,58.105,-56.641,-54.688,-16.113,0.000
1759622139.756,-20.996,-50.293,-53.223,-7.812,0.000
1759622139.759,-63.477,-47.852,-53.711,7.324,0.000
1759622139.763,-9.277,-50.781,-52.734,0.000,0.000
1759622139.767,34.668,-54.688,-52.246,-9.766,0.000
1759622139.771,-5.859,-58.594,-55.176,-12.695,0.000
1759622139.775,-57.617,-56.152,-57.617,17.090,0.000
1759622139.779,-39.551,-57.617,-57.129,13.184,0.000
1759622139.783,29.297,-58.594,-55.176,-20.996,0.000
1759622139.787,18.066,-53.223,-58.105,-21.973,0.000
1759622139.791,-48.340,-51.270,-55.664,-0.488,0.000
1759622139.795,-42.480,-53.223,-50.293,10.254,0.000
1759622139.798,19.531,-54.688,-49.316,1.465,0.000
1759622139.802,32.227,-49.805,-47.363,-12.207,0.000
1759622139.806,-26.367,-48.340,-48.340,-0.488,0.000
1759622139.810,-46.387,-50.781,-48.340,23.438,0.000
1759622139.814,7.324,-52.734,-46.875,17.578,0.000
1759622139.818,38.574,-48.828,-51.758,-9.277,0.000
1759622139.822,-27.832,-46.875,-51.270,-8.789,0.000
1759622139.826,-63.477,-51.270,-48.828,14.648,0.000
1759622139.830,-10.254,-50.293,-51.270,13.672,0.000
1759622139.834,60.059,-45.898,-51.758,-4.883,0.000
1759622139.838,11.719,-44.434,-49.805,-16.602,0.000
1759622139.841,-58.105,-44.434,-48.340,4.883,0.000
1759622139.845,-30.273,-42.480,-53.223,-6.348,0.000
1759622139.849,39.062,-40.039,-53.223,-22.949,0.000
1759622139.853,22.949,-44.434,-50.293,-9.277,0.000
1759622139.857,-51.270,-48.340,-50.781,3.906,0.000
1759622139.861,-51.758,-51.270,-47.852,-2.441,0.000
1759622139.865,26.855,-52.246,-46.875,-19.043,0.000
1759622139.869,58.105,-49.316,-43.457,-21.484,0.000
1759622139.873,-26.855,-46.387,-44.922,-6.836,0.000
1759622139.877,-70.312,-48.828,-52.734,5.371,0.000
1759622139.881,-14.160,-56.641,-55.664,-11.719,0.000
1759622139.884,28.320,-61.035,-56.641,-32.715,0.000
1759622139.888,-26.855,-58.594,-57.129,-21.484,0.000
1759622139.892,-76.172,-59.082,-59.082,1.465,0.000
1759622139.896,-32.715,-61.035,-58.105,-5.371,0.000
1759622139.900,47.363,-56.152,-55.664,-5.859,0.000
1759622139.904,12.695,-54.199,-58.105,-7.812,0.000
1759622139.908,-55.176,-54.199,-58.105,1.465,0.000
1759622139.912,-28.809,-52.734,-52.246,7.324,0.000
1759622139.916,21.484,-52.246,-52.734,-12.695,0.000
1759622139.920,3.906,-50.781,-55.176,-13.184,0.000
1759622139.923,-52.734,-52.246,-54.199,12.695,0.000
1759622139.927,-50.293,-47.363,-52.246,12.695,0.000
1759622139.931,15.137,-47.363,-55.176,-11.230,0.000
1759622139.935,49.316,-47.363,-57.129,-31.250,0.000
1759622139.939,-19.531,-51.270,-54.688,-10.254,0.000
1759622139.943,-70.312,-52.246,-48.828,15.137,0.000
1759622139.947,-20.020,-46.875,-47.852,-2.930,0.000
1759622139.951,38.574,-47.852,-51.758,-19.043,0.000
1759622139.955,-16.113,-46.875,-53.223,-11.719,0.000
1759622139.959,-64.453,-49.805,-51.758,12.695,0.000
1759622139.963,-16.113,-48.828,-51.270,4.883,0.000
1759622139.966,45.898,-41.016,-52.734,-10.254,0.000
1759622139.970,9.766,-41.504,-49.316,-7.812,0.000
1759622139.974,-68.359,-44.434,-44.922,5.371,0.000
1759622139.978,-60.059,-41.504,-40.527,-0.488,0.000
1759622139.982,9.277,-39.551,-44.922,-25.879,0.000
1759622139.986,16.113,-38.574,-47.363,-37.598,0.000
1759622139.990,-61.035,-43.457,-45.898,-17.090,0.000
1759622139.994,-101.562,-49.316,-53.223,-4.395,0.000
1759622139.998,-34.180,-51.270,-53.711,-29.785,0.000
1759622140.002,13.672,-49.805,-51.758,-45.898,0.000
1759622140.005,-44.922,-48.340,-49.316,-21.973,0.000
1759622140.009,-81.543,-49.805,-48.828,-3.418,0.000
1759622140.013,-27.344,-44.434,-48.340,-13.672,0.000
1759622140.017,42.480,-42.480,-51.270,-27.832,0.000
1759622140.021,-7.812,-48.828,-55.664,-26.855,0.000
1759622140.025,-80.078,-51.270,-57.617,-1.465,0.000
1759622140.029,-45.410,-50.781,-61.523,-15.625,0.000
1759622140.033,31.250,-54.688,-66.406,-38.086,0.000
1759622140.037,8.301,-54.199,-62.012,-21.973,0.000
1759622140.041,-61.523,-43.945,-58.105,-8.301,0.000
1759622140.045,-50.781,-44.434,-58.594,-10.742,0.000
1759622140.048,17.578,-43.457,-54.199,-16.113,0.000
1759622140.052,18.555,-42.480,-60.547,-33.203,0.000
1759622140.056,-59.082,-44.434,-66.895,-24.902,0.000
1759622140.060,-57.129,-45.410,-62.012,-6.348,0.000
1759622140.064,23.926,-42.969,-60.059,-15.625,0.000
1759622140.068,25.391,-39.551,-55.176,-21.484,0.000
1759622140.072,-61.035,-46.387,-56.152,-14.160,0.000
1759622140.076,-92.285,-51.758,-61.035,-5.859,0.000
1759622140.080,-32.715,-56.152,-59.082,-1.465,0.000
1759622140.084,25.391,-55.664,-62.012,-19.531,0.000
1759622140.087,-19.043,-53.223,-62.988,-36.133,0.000
1759622140.091,-65.430,-53.711,-60.059,-10.742,0.000
1759622140.095,-38.086,-58.594,-58.594,-17.578,0.000
1759622140.099,29.785,-62.988,-59.570,-32.227,0.000
1759622140.103,14.160,-58.594,-62.012,-29.785,0.000
1759622140.107,-67.871,-60.547,-54.688,-0.488,0.000
1759622140.111,-65.430,-57.129,-46.387,11.719,0.000
1759622140.115,6.836,-48.828,-48.340,-15.137,0.000
1759622140.119,14.160,-52.734,-48.340,-37.109,0.000
1759622140.123,-48.340,-56.641,-49.805,-25.879,0.000
1759622140.127,-62.012,-59.082,-52.734,0.000,0.000
1759622140.130,-2.441,-59.570,-53.711,-15.137,0.000
1759622140.134,41.016,-53.711,-54.688,-33.691,0.000
1759622140.138,-9.277,-50.781,-51.758,-24.902,0.000
1759622140.142,-71.289,-52.734,-51.758,3.906,0.000
1759622140.146,-44.434,-55.176,-52.246,-6.348,0.000
1759622140.150,32.227,-52.246,-53.223,-23.926,0.000
1759622140.154,8.789,-50.293,-55.664,-14.160,0.000
1759622140.158,-52.246,-50.781,-53.223,10.742,0.000
1759622140.162,-41.504,-55.664,-53.711,5.371,0.000
1759622140.166,33.203,-54.199,-56.152,-22.461,0.000
1759622140.169,31.250,-50.293,-54.199,-27.832,0.000
1759622140.173,-49.805,-55.176,-52.246,-10.742,0.000
1759622140.177,-60.547,-54.688,-49.805,-3.906,0.000
1759622140.181,8.789,-49.316,-44.922,-12.207,0.000
1759622140.185,40.527,-47.852,-50.293,-16.602,0.000
1759622140.189,-21.973,-46.387,-51.758,-7.812,0.000
1759622140.193,-56.641,-45.898,-47.363,-2.930,0.000
1759622140.197,-0.977,-42.480,-59.082,-22.461,0.000
1759622140.201,39.062,-46.387,-63.477,-36.133,0.000
1759622140.205,-23.438,-51.758,-63.965,-33.691,0.000
1759622140.209,-62.500,-51.758,-66.406,-17.090,0.000
1759622140.212,-18.555,-47.852,-57.129,-20.508,0.000
1759622140.216,45.410,-41.992,-58.594,-31.738,0.000
1759622140.220,3.418,-45.898,-59.570,-29.785,0.000
1759622140.224,-63.477,-44.922,-49.805,-20.508,0.000
1759622140.228,-44.922,-47.852,-45.898,-18.555,0.000
1759622140.232,26.367,-51.270,-45.410,-32.227,0.000
1759622140.236,22.461,-50.781,-48.828,-46.387,0.000
1759622140.240,-49.316,-49.316,-50.293,-30.762,0.000
1759622140.244,-52.246,-44.434,-46.875,-12.695,0.000
1759622140.248,8.301,-46.875,-50.781,-33.691,0.000
1759622140.252,23.438,-50.293,-55.176,-60.547,0.000
1759622140.255,-54.688,-51.270,-51.758,-44.434,0.000
1759622140.259,-87.891,-49.316,-53.223,-25.879,0.000
1759622140.263,-35.156,-46.875,-56.152,-42.969,0.000
1759622140.267,27.344,-47.363,-59.082,-49.805,0.000
1759622140.271,-13.672,-49.316,-54.199,-41.992,0.000
1759622140.275,-54.688,-45.898,-44.434,-12.207,0.000
1759622140.279,-21.973,-47.363,-49.805,-12.207,0.000
1759622140.283,38.086,-51.270,-51.270,-40.039,0.000
1759622140.287,9.277,-47.852,-45.898,-46.875,0.000
1759622140.291,-61.523,-49.316,-54.688,-28.809,0.000
1759622140.294,-54.199,-48.340,-56.152,-13.184,0.000
1759622140.298,20.020,-41.016,-50.781,-32.715,0.000
1759622140.302,36.621,-41.504,-54.199,-51.270,0.000
1759622140.306,-40.527,-43.457,-58.105,-32.715,0.000
1759622140.310,-67.383,-52.246,-62.500,-17.090,0.000
1759622140.314,-0.488,-54.199,-59.082,-39.062,0.000
1759622140.318,43.457,-46.387,-53.711,-64.453,0.000
1759622140.322,-9.766,-49.805,-53.223,-43.945,0.000
1759622140.326,-57.129,-48.340,-48.828,-20.996,0.000
1759622140.330,-24.414,-44.434,-47.363,-34.668,0.000
1759622140.334,26.367,-43.945,-48.340,-43.457,0.000
1759622140.337,-10.254,-42.969,-51.270,-45.898,0.000
1759622140.341,-68.359,-44.434,-52.734,-26.855,0.000
1759622140.345,-55.664,-47.852,-53.223,-27.344,0.000
1759622140.349,23.438,-47.363,-52.734,-55.176,0.000
1759622140.353,19.043,-44.922,-50.293,-60.059,0.000
1759622140.357,-48.340,-46.387,-47.363,-35.156,0.000
1759622140.361,-45.898,-48.340,-46.875,-21.484,0.000
1759622140.365,17.578,-48.340,-48.828,-26.855,0.000
1759622140.369,20.508,-51.270,-53.711,-47.363,0.000
1759622140.373,-45.410,-46.875,-55.664,-45.898,0.000
1759622140.376,-47.363,-36.133,-48.828,-16.113,0.000
1759622140.380,4.395,-36.133,-48.828,-21.973,0.000
1759622140.384,32.715,-37.598,-49.316,-40.527,0.000
1759622140.388,-21.973,-38.574,-47.852,-30.762,0.000
1759622140.392,-57.129,-42.969,-52.246,0.488,0.000
1759622140.396,-12.695,-45.410,-56.641,-11.719,0.000
1759622140.400,40.527,-41.992,-58.594,-32.227,0.000
1759622140.404,-14.648,-39.062,-53.711,-24.414,0.000
1759622140.408,-76.660,-42.969,-52.734,-8.789,0.000
1759622140.412,-47.363,-46.387,-51.270,-4.395,0.000
1759622140.416,24.414,-46.387,-52.734,-16.602,0.000
1759622140.419,17.578,-45.410,-61.035,-30.762,0.000
1759622140.423,-45.898,-48.828,-61.035,-24.414,0.000
1759622140.427,-51.270,-47.852,-58.594,-16.602,0.000
1759622140.431,-1.465,-45.898,-59.082,-31.250,0.000
1759622140.435,20.020,-42.969,-59.570,-39.551,0.000
1759622140.439,-41.992,-45.410,-60.547,-20.020,0.000
1759622140.443,-71.777,-48.828,-54.199,11.719,0.000
1759622140.447,-13.184,-46.875,-51.758,5.371,0.000
1759622140.451,29.785,-44.922,-54.688,-29.297,0.000
1759622140.455,-23.438,-48.828,-53.711,-21.973,0.000
1759622140.458,-57.617,-54.199,-61.035,6.348,0.000
1759622140.462,-22.461,-46.875,-67.871,-7.324,0.000
1759622140.466,29.785,-44.434,-62.500,-20.996,0.000
1759622140.470,-8.301,-46.387,-54.688,-21.973,0.000
1759622140.474,-67.871,-41.992,-49.316,1.465,0.000
1759622140.478,-52.734,-42.480,-55.176,-5.859,0.000
1759622140.482,16.602,-44.434,-56.152,-33.691,0.000
1759622140.486,18.066,-41.992,-54.688,-26.855,0.000
1759622140.490,-57.617,-43.457,-54.199,2.441,0.000
1759622140.494,-71.777,-47.852,-50.293,15.137,0.000
1759622140.498,4.395,-49.316,-48.828,-1.465,0.000
1759622140.501,58.594,-50.781,-47.363,-11.719,0.000
1759622140.505,-34.180,-46.875,-47.363,-4.883,0.000
1759622140.509,-92.773,-47.363,-49.316,6.348,0.000
1759622140.513,-34.668,-48.828,-45.898,-7.324,0.000
1759622140.517,23.438,-45.898,-46.387,-18.066,0.000
1759622140.521,-17.090,-44.434,-46.387,-8.301,0.000
1759622140.525,-74.219,-42.969,-39.062,-12.207,0.000
1759622140.529,-48.340,-27.832,-32.715,-25.879,0.000
1759622140.533,24.902,-33.203,-33.203,-21.973,0.000
1759622140.537,-20.508,-44.922,-52.734,-34.180,0.000
1759622140.540,-110.840,-40.527,-50.293,-51.270,0.000
1759622140.544,-116.211,-35.156,-27.832,-55.664,0.000
1759622140.548,-61.523,-26.855,-44.922,-86.914,0.000
1759622140.552,-65.918,-26.855,-49.316,-129.883,0.000
1759622140.556,-172.363,-25.391,-44.434,-136.719,0.000
1759622140.560,-205.566,-23.926,-35.156,-130.859,0.000
1759622140.564,-164.551,-25.879,-22.949,-167.969,0.000
1759622140.568,-167.969,-19.531,-34.668,-212.891,0.000
1759622140.572,-242.188,-10.254,-30.762,-210.938,0.000
1759622140.576,-289.551,-7.812,-24.902,-207.031,0.000
1759622140.580,-267.578,-2.441,-20.508,-229.004,0.000
1759622140.583,-219.727,3.418,-21.484,-251.953,0.000
1759622140.587,-243.652,0.977,-22.461,-241.699,0.000
1759622140.591,-284.180,5.859,-20.996,-214.355,0.000
1759622140.595,-264.648,4.395,-26.367,-228.027,0.000
1759622140.599,-208.496,1.465,-23.926,-238.281,0.000
1759622140.603,-214.355,-2.441,-23.926,-226.074,0.000
1759622140.607,-262.207,-9.766,-26.367,-202.637,0.000
1759622140.611,-246.582,-11.230,-32.227,-190.430,0.000
1759622140.615,-169.434,-12.695,-34.668,-195.312,0.000
1759622140.619,-141.602,-13.672,-27.832,-183.594,0.000
1759622140.623,-194.336,-10.254,-29.297,-146.973,0.000
1759622140.626,-204.590,-12.695,-36.133,-137.695,0.000
1759622140.630,-118.164,-24.414,-39.551,-130.859,0.000
1759622140.634,-61.523,-34.180,-41.504,-113.281,0.000
1759622140.638,-130.859,-44.922,-44.434,-104.980,0.000
1759622140.642,-161.133,-48.828,-46.875,-73.730,0.000
1759622140.646,-85.449,-44.922,-49.316,-58.105,0.000
1759622140.650,-8.789,-46.387,-53.223,-50.781,0.000
1759622140.654,-34.668,-55.176,-50.781,-25.391,0.000
1759622140.658,-67.871,-62.012,-53.711,-4.883,0.000
1759622140.662,-45.898,-66.895,-58.105,-2.930,0.000
1759622140.665,27.344,-69.336,-59.570,3.906,0.000
1759622140.669,65.430,-63.965,-59.082,16.113,0.000
1759622140.673,0.977,-65.430,-55.664,42.480,0.000
1759622140.677,-24.902,-71.777,-56.152,63.477,0.000
1759622140.681,57.617,-71.289,-59.082,63.965,0.000
1759622140.685,94.238,-70.801,-63.477,60.547,0.000
1759622140.689,30.762,-73.730,-66.406,62.012,0.000
1759622140.693,14.160,-70.801,-62.988,85.938,0.000
1759622140.697,79.102,-63.477,-64.941,89.844,0.000
1759622140.701,127.930,-62.500,-71.289,63.965,0.000
1759622140.705,74.707,-62.988,-67.871,83.008,0.000
1759622140.708,21.973,-59.082,-60.059,109.863,0.000
1759622140.712,59.570,-60.059,-58.594,97.168,0.000
1759622140.716,125.488,-64.941,-57.617,83.984,0.000
1759622140.720,97.656,-64.941,-53.711,85.938,0.000
1759622140.724,44.922,-60.059,-54.199,103.516,0.000
1759622140.728,60.059,-53.711,-53.711,98.145,0.000
1759622140.732,123.047,-59.570,-57.617,88.867,0.000
1759622140.736,120.605,-60.059,-62.988,78.125,0.000
1759622140.740,54.688,-52.734,-62.012,90.332,0.000
1759622140.744,42.969,-59.082,-61.523,106.934,0.000
1759622140.747,88.379,-61.523,-61.523,81.055,0.000
1759622140.751,105.469,-55.664,-60.059,60.059,0.000
1759622140.755,46.875,-55.176,-57.617,73.730,0.000
1759622140.759,22.949,-56.152,-61.035,86.914,0.000
1759622140.763,75.684,-54.688,-65.918,69.336,0.000
1759622140.767,108.398,-57.129,-64.453,53.711,0.000
1759622140.771,47.852,-62.988,-64.453,56.641,0.000
1759622140.775,2.441,-60.547,-66.406,76.172,0.000
1759622140.779,32.715,-57.617,-66.895,62.500,0.000
1759622140.783,81.543,-60.059,-64.453,40.527,0.000
1759622140.787,52.734,-58.105,-61.523,42.480,0.000
1759622140.790,-8.789,-53.223,-60.059,61.035,0.000
1759622140.794,-0.488,-58.105,-63.477,58.105,0.000
1759622140.798,76.172,-64.941,-70.312,42.969,0.000
1759622140.802,92.773,-60.547,-68.848,27.344,0.000
1759622140.806,1.953,-56.152,-65.430,26.367,0.000
1759622140.810,-35.645,-55.664,-70.801,43.945,0.000
1759622140.814,34.668,-55.664,-70.801,37.109,0.000
1759622140.818,73.242,-55.664,-68.848,20.508,0.000
1759622140.822,10.254,-56.152,-69.336,25.879,0.000
1759622140.826,-21.973,-56.641,-62.500,53.711,0.000
1759622140.829,24.902,-59.082,-64.453,47.363,0.000
1759622140.833,83.984,-59.570,-65.430,27.832,0.000
1759622140.837,46.387,-54.199,-62.988,25.879,0.000
1759622140.841,-19.531,-53.223,-64.941,46.387,0.000
1759622140.845,4.395,-54.199,-62.012,39.062,0.000
1759622140.849,76.172,-48.828,-61.035,23.438,0.000
1759622140.853,46.387,-46.387,-61.035,23.926,0.000
1759622140.857,-19.531,-47.363,-56.641,34.668,0.000
1759622140.861,-11.719,-48.828,-54.688,41.504,0.000
1759622140.865,53.223,-48.340,-60.547,31.250,0.000
1759622140.869,67.383,-45.410,-66.895,1.953,0.000
1759622140.872,-0.977,-46.875,-65.918,7.324,0.000
1759622140.876,-24.902,-48.340,-62.012,24.414,0.000
1759622140.880,16.113,-49.316,-60.059,4.883,0.000
1759622140.884,53.223,-54.199,-61.523,-9.277,0.000
1759622140.888,4.395,-55.176,-62.500,3.906,0.000
1759622140.892,-34.180,-52.734,-59.570,21.973,0.000
1759622140.896,9.277,-48.828,-61.035,10.742,0.000
1759622140.900,68.848,-46.387,-63.965,-6.348,0.000
1759622140.904,17.578,-47.363,-62.012,-1.953,0.000
1759622140.908,-57.617,-49.805,-60.059,5.859,0.000
1759622140.911,-24.902,-51.758,-59.082,23.438,0.000
1759622140.915,55.176,-46.875,-54.688,12.207,0.000
1759622140.919,35.645,-46.875,-52.734,-9.277,0.000
1759622140.923,-37.109,-49.805,-57.617,4.883,0.000
1759622140.927,-39.551,-50.293,-57.617,5.371,0.000
1759622140.931,39.551,-45.898,-53.223,0.000,0.000
1759622140.935,56.641,-43.457,-54.199,-9.277,0.000
1759622140.939,-34.180,-51.758,-54.199,1.465,0.000
1759622140.943,-70.801,-49.805,-51.270,15.137,0.000
1759622140.947,-12.695,-45.898,-53.711,-3.418,0.000
1759622140.951,38.574,-46.387,-56.152,-24.902,0.000
1759622140.954,-10.742,-44.434,-52.734,-19.043,0.000
1759622140.958,-64.453,-45.410,-50.781,4.395,0.000
1759622140.962,-19.531,-44.922,-51.270,-7.324,0.000
1759622140.966,55.664,-45.410,-51.270,-20.020,0.000
1759622140.970,8.301,-43.945,-54.199,-20.020,0.000
1759622140.974,-50.781,-41.504,-54.199,-8.301,0.000
1759622140.978,-23.438,-50.293,-52.734,-2.441,0.000
1759622140.982,30.762,-54.199,-54.688,-12.207,0.000
1759622140.986,14.160,-52.246,-56.641,-26.367,0.000
1759622140.990,-48.828,-51.758,-55.664,-13.672,0.000
1759622140.994,-43.945,-48.828,-58.594,-0.977,0.000
1759622140.997,26.367,-44.922,-60.059,-17.578,0.000
1759622141.001,54.688,-42.480,-62.500,-32.227,0.000
1759622141.005,-8.301,-43.457,-59.570,-18.555,0.000
1759622141.009,-57.617,-46.387,-56.641,-0.977,0.000
1759622141.013,-11.719,-54.688,-65.430,-11.230,0.000
1759622141.017,40.527,-57.129,-72.266,-30.273,0.000
1759622141.021,9.766,-48.340,-67.871,-26.367,0.000
1759622141.025,-40.527,-44.922,-62.988,11.719,0.000
1759622141.029,-33.203,-51.758,-64.453,12.207,0.000
1759622141.033,28.809,-52.246,-59.570,-8.789,0.000
1759622141.036,15.137,-43.945,-55.664,-3.906,0.000
1759622141.040,-47.852,-47.363,-56.641,16.602,0.000
1759622141.044,-53.223,-48.828,-56.641,25.879,0.000
1759622141.048,18.555,-44.922,-57.129,-5.371,0.000
1759622141.052,36.133,-50.781,-56.641,-23.926,0.000
1759622141.056,-21.484,-50.293,-53.711,7.812,0.000
1759622141.060,-57.129,-47.363,-56.152,20.508,0.000
1759622141.064,-1.465,-55.664,-61.523,1.953,0.000
1759622141.068,54.688,-62.012,-58.594,-6.836,0.000
1759622141.072,-20.020,-57.129,-56.641,7.812,0.000
1759622141.076,-68.848,-51.270,-57.617,15.137,0.000
1759622141.079,-16.602,-52.246,-52.246,3.906,0.000
1759622141.083,35.645,-53.223,-48.340,-10.742,0.000
1759622141.087,-11.719,-51.758,-53.223,-6.836,0.000
1759622141.091,-77.148,-53.711,-55.176,5.859,0.000
1759622141.095,-47.852,-59.570,-59.570,-7.812,0.000
1759622141.099,17.578,-62.012,-64.453,-17.090,0.000
1759622141.103,-2.930,-61.035,-63.965,-17.578,0.000
1759622141.107,-59.082,-56.641,-62.012,-2.441,0.000
1759622141.111,-70.312,-57.129,-55.176,2.441,0.000
1759622141.115,0.977,-59.082,-50.781,-0.488,0.000
1759622141.118,19.043,-57.617,-51.758,-11.719,0.000
1759622141.122,-45.898,-53.223,-52.246,-16.602,0.000
1759622141.126,-51.270,-54.199,-52.246,-1.465,0.000
1759622141.130,-6.836,-64.453,-57.617,3.418,0.000
1759622141.134,23.438,-63.965,-57.617,-17.578,0.000
1759622141.138,-38.574,-53.223,-58.105,-23.438,0.000
1759622141.142,-70.312,-56.152,-64.453,-2.441,0.000
1759622141.146,-10.742,-54.199,-63.965,-10.742,0.000
1759622141.150,33.691,-52.734,-57.129,-15.137,0.000
1759622141.154,-3.418,-50.781,-56.152,-8.789,0.000
1759622141.158,-57.617,-50.781,-57.129,13.184,0.000
1759622141.161,-46.875,-57.129,-61.035,9.766,0.000
1759622141.165,18.555,-57.617,-68.359,-19.531,0.000
1759622141.169,18.066,-57.617,-65.430,-28.320,0.000
1759622141.173,-30.762,-56.152,-59.082,-11.719,0.000
1759622141.177,-43.945,-52.734,-56.152,0.977,0.000
1759622141.181,0.488,-49.316,-50.293,-9.766,0.000
1759622141.185,23.926,-49.316,-49.316,-25.391,0.000
1759622141.189,-43.945,-55.664,-50.781,-13.184,0.000
1759622141.193,-48.828,-54.688,-47.363,5.859,0.000
1759622141.197,18.066,-48.340,-47.363,-6.836,0.000
1759622141.200,34.180,-48.828,-50.781,-26.367,0.000
1759622141.204,-15.137,-52.246,-46.875,-11.719,0.000
1759622141.208,-58.105,-53.711,-45.410,17.090,0.000
1759622141.212,-6.348,-53.711,-52.246,0.488,0.000
1759622141.216,65.430,-50.293,-57.129,-27.344,0.000
1759622141.220,4.395,-45.898,-56.152,-23.926,0.000
1759622141.224,-65.430,-46.875,-55.176,-1.465,0.000
1759622141.228,-46.875,-49.316,-57.617,-3.418,0.000
1759622141.232,23.438,-50.293,-54.199,-15.625,0.000
1759622141.236,22.461,-53.223,-55.664,-22.949,0.000
1759622141.240,-50.781,-53.223,-58.105,-16.113,0.000
1759622141.243,-70.312,-56.641,-55.176,-10.742,0.000
1759622141.247,6.348,-55.176,-51.270,-14.648,0.000
1759622141.251,36.621,-47.852,-50.293,-15.137,0.000
1759622141.255,-32.227,-45.410,-54.199,-8.789,0.000
1759622141.259,-50.781,-44.434,-56.641,2.930,0.000
1759622141.263,2.930,-45.410,-57.129,-3.418,0.000
1759622141.267,39.062,-47.363,-56.641,-21.973,0.000
1759622141.271,-13.672,-48.340,-63.477,-23.438,0.000
1759622141.275,-63.965,-49.805,-63.477,-4.395,0.000
1759622141.279,-25.879,-49.316,-57.617,-7.812,0.000
1759622141.282,38.574,-42.969,-57.129,-18.066,0.000
1759622141.286,10.254,-44.434,-56.641,-14.160,0.000
1759622141.290,-57.129,-52.734,-58.594,1.953,0.000
1759622141.294,-47.852,-53.711,-61.523,0.488,0.000
1759622141.298,11.230,-54.688,-60.059,-14.160,0.000
1759622141.302,12.695,-57.129,-61.523,-37.109,0.000
1759622141.306,-47.363,-57.129,-63.965,-24.902,0.000
1759622141.310,-58.594,-51.270,-57.129,3.418,0.000
1759622141.314,-2.441,-51.270,-55.664,-9.277,0.000
1759622141.318,31.250,-52.246,-60.547,-35.156,0.000
1759622141.322,-27.344,-47.852,-55.664,-20.020,0.000
1759622141.325,-69.336,-49.805,-52.246,9.766,0.000
1759622141.329,-13.672,-46.875,-48.340,-10.254,0.000
1759622141.333,58.594,-45.898,-45.898,-17.090,0.000
1759622141.337,11.719,-45.410,-49.316,-1.953,0.000
1759622141.341,-65.918,-42.969,-54.199,7.324,0.000
1759622141.345,-39.551,-45.410,-55.176,5.371,0.000
1759622141.349,27.832,-45.410,-53.223,-9.277,0.000
1759622141.353,5.859,-49.805,-57.617,-23.438,0.000
1759622141.357,-65.918,-50.781,-56.152,-13.184,0.000
1759622141.361,-63.477,-46.875,-54.199,-16.113,0.000
1759622141.364,18.555,-49.805,-57.617,-25.391,0.000
1759622141.368,28.320,-49.316,-58.594,-32.227,0.000
1759622141.372,-57.129,-50.293,-54.688,-17.090,0.000
1759622141.376,-74.707,-56.641,-53.223,-4.395,0.000
1759622141.380,2.441,-57.617,-52.246,-9.277,0.000
1759622141.384,39.062,-55.176,-53.223,-22.461,0.000
1759622141.388,-22.461,-56.152,-60.547,-29.785,0.000
1759622141.392,-75.195,-57.129,-60.547,-18.066,0.000
1759622141.396,-41.504,-55.176,-56.641,-27.832,0.000
1759622141.400,24.902,-56.641,-56.152,-27.832,0.000
1759622141.404,-7.812,-59.570,-56.152,-12.207,0.000
1759622141.407,-47.363,-57.617,-57.129,-5.859,0.000
1759622141.411,-28.320,-57.129,-59.082,-12.695,0.000
1759622141.415,17.578,-61.035,-62.012,-31.250,0.000
1759622141.419,-2.441,-61.523,-56.152,-36.621,0.000
1759622141.423,-66.895,-59.570,-50.293,-9.766,0.000
1759622141.427,-60.059,-61.523,-49.805,-2.930,0.000
1759622141.431,12.207,-60.547,-48.828,-21.484,0.000
1759622141.435,37.598,-57.617,-48.828,-34.668,0.000
1759622141.439,-29.297,-56.152,-51.758,-16.602,0.000
1759622141.443,-68.848,-50.293,-48.340,5.371,0.000
1759622141.447,-19.043,-50.781,-50.293,-6.348,0.000
1759622141.450,24.414,-51.270,-54.199,-29.297,0.000
1759622141.454,-28.809,-48.340,-54.199,-27.344,0.000
1759622141.458,-73.730,-52.734,-54.199,-6.348,0.000
1759622141.462,-34.180,-55.664,-56.641,-12.207,0.000
1759622141.466,31.738,-52.246,-58.594,-23.438,0.000
1759622141.470,1.953,-48.828,-55.664,-23.926,0.000
1759622141.474,-59.082,-48.828,-57.129,-9.766,0.000
1759622141.478,-55.664,-51.758,-61.035,-12.207,0.000
1759622141.482,13.184,-55.176,-61.523,-19.531,0.000
1759622141.486,11.719,-54.199,-61.035,-25.879,0.000
1759622141.489,-47.363,-57.617,-62.012,-7.324,0.000
1759622141.493,-46.875,-60.547,-64.453,4.883,0.000
1759622141.497,-1.953,-54.199,-64.453,-16.113,0.000
1759622141.501,11.719,-51.758,-63.965,-37.109,0.000
1759622141.505,-51.758,-48.828,-63.965,-26.367,0.000
1759622141.509,-82.520,-43.945,-67.383,-4.883,0.000
1759622141.513,-28.809,-45.898,-66.406,-19.531,0.000
1759622141.517,33.691,-45.898,-60.547,-30.273,0.000
1759622141.521,-20.508,-46.875,-61.035,-18.066,0.000
1759622141.525,-74.219,-46.875,-58.105,8.301,0.000
1759622141.529,-1.953,-42.480,-51.270,11.230,0.000
1759622141.532,59.570,-44.434,-53.223,-17.090,0.000
1759622141.536,-19.531,-50.781,-60.059,-14.648,0.000
1759622141.540,-84.473,-50.781,-59.570,6.836,0.000
1759622141.544,-62.012,-47.363,-56.641,5.371,0.000
1759622141.548,13.672,-43.945,-58.594,-9.766,0.000
1759622141.552,15.137,-40.527,-58.105,-28.809,0.000
1759622141.556,-60.547,-45.898,-59.082,-14.648,0.000
1759622141.560,-64.453,-49.316,-60.059,-5.371,0.000
1759622141.564,3.906,-43.945,-58.594,-14.648,0.000
1759622141.568,32.715,-41.504,-57.129,-17.090,0.000
1759622141.571,-31.250,-38.574,-55.664,-2.441,0.000
1759622141.575,-48.828,-41.992,-59.082,5.371,0.000
1759622141.579,15.137,-43.945,-60.059,1.953,0.000
1759622141.583,39.551,-44.434,-63.477,-13.672,0.000
1759622141.587,-29.297,-46.875,-63.965,-28.809,0.000
1759622141.591,-71.289,-46.875,-55.176,6.348,0.000
1759622141.595,-30.273,-49.805,-53.223,15.625,0.000
1759622141.599,40.039,-47.363,-57.617,-18.555,0.000
1759622141.603,7.324,-44.434,-56.152,-33.691,0.000
1759622141.607,-58.105,-43.457,-50.293,-4.883,0.000
1759622141.611,-45.898,-44.434,-50.293,7.812,0.000
1759622141.614,28.320,-45.898,-48.828,-4.395,0.000
1759622141.618,39.551,-46.387,-50.781,-13.672,0.000
1759622141.622,-40.527,-47.852,-55.176,-5.859,0.000
1759622141.626,-66.406,-43.457,-53.711,12.695,0.000
1759622141.630,-12.695,-39.062,-49.805,-9.277,0.000
1759622141.634,31.250,-42.480,-52.734,-30.762,0.000
1759622141.638,-14.160,-45.898,-52.734,-17.090,0.000
1759622141.642,-52.734,-39.062,-48.828,1.465,0.000
1759622141.646,-10.742,-36.133,-53.223,-9.277,0.000
1759622141.650,40.039,-40.527,-52.246,-25.391,0.000
1759622141.654,-3.906,-38.574,-50.293,-11.230,0.000
1759622141.657,-48.340,-37.109,-53.711,6.348,0.000
1759622141.661,-28.320,-39.551,-60.059,-9.277,0.000
1759622141.665,26.855,-39.062,-63.477,-17.578,0.000
1759622141.669,0.000,-37.598,-56.152,-17.578,0.000
1759622141.673,-75.684,-45.898,-65.430,-11.230,0.000
1759622141.677,-62.012,-50.293,-69.336,-16.602,0.000
1759622141.681,-5.371,-39.551,-49.805,-39.062,0.000
1759622141.685,-8.301,-37.109,-48.828,-46.387,0.000
1759622141.689,-77.637,-41.016,-51.758,-44.434,0.000
1759622141.693,-113.281,-43.457,-50.781,-45.898,0.000
1759622141.696,-63.965,-48.340,-40.527,-54.688,0.000
1759622141.700,-4.883,-35.156,-31.738,-73.730,0.000
1759622141.704,-76.172,-21.973,-32.227,-99.121,0.000
1759622141.708,-167.480,-23.926,-29.785,-98.633,0.000
1759622141.712,-131.836,-24.902,-34.180,-115.723,0.000
1759622141.716,-94.727,-18.066,-33.203,-148.438,0.000
1759622141.720,-169.434,-14.648,-27.344,-168.945,0.000
1759622141.724,-223.145,-9.277,-20.996,-184.082,0.000
1759622141.728,-235.352,0.000,-18.555,-215.820,0.000
1759622141.732,-204.102,-1.465,-13.184,-233.398,0.000
1759622141.736,-221.191,-1.465,-11.719,-245.605,0.000
1759622141.739,-284.668,11.230,-11.719,-241.699,0.000
1759622141.743,-291.504,9.277,-8.789,-231.934,0.000
1759622141.747,-235.840,9.277,-21.484,-236.816,0.000
1759622141.751,-193.359,9.766,-32.227,-258.301,0.000
1759622141.755,-262.695,6.348,-28.809,-254.395,0.000
1759622141.759,-304.199,-5.371,-27.832,-226.074,0.000
1759622141.763,-239.258,-12.695,-24.902,-232.910,0.000
1759622141.767,-174.316,-7.812,-17.578,-237.305,0.000
1759622141.771,-226.074,-8.789,-27.344,-234.863,0.000
1759622141.775,-258.789,-12.207,-35.156,-197.754,0.000
1759622141.778,-198.730,-19.043,-30.762,-178.223,0.000
1759622141.782,-126.465,-13.184,-28.320,-187.500,0.000
1759622141.786,-144.531,-6.836,-24.902,-173.340,0.000
1759622141.790,-198.730,-10.742,-31.738,-150.879,0.000
1759622141.794,-187.012,-16.113,-31.738,-153.809,0.000
1759622141.798,-107.422,-20.508,-24.902,-153.320,0.000
1759622141.802,-79.590,-19.043,-20.508,-144.043,0.000
1759622141.806,-128.418,-23.438,-18.066,-115.723,0.000
1759622141.810,-142.090,-27.832,-19.043,-89.355,0.000
1759622141.814,-75.195,-26.367,-20.996,-91.309,0.000
1759622141.818,-26.855,-30.273,-24.414,-88.379,0.000
1759622141.821,-76.172,-34.668,-32.715,-43.945,0.000
1759622141.825,-83.984,-37.109,-38.086,-18.555,0.000
1759622141.829,-4.395,-39.551,-37.109,-34.180,0.000
1759622141.833,43.457,-44.434,-37.109,-24.414,0.000
1759622141.837,7.812,-56.152,-41.504,0.977,0.000
1759622141.841,-26.367,-65.918,-46.387,19.043,0.000
1759622141.845,8.301,-62.012,-47.363,20.020,0.000
1759622141.849,84.961,-62.500,-48.340,22.949,0.000
1759622141.853,69.824,-67.383,-50.781,40.527,0.000
1759622141.857,14.648,-68.848,-55.664,67.383,0.000
1759622141.860,26.367,-71.777,-59.082,59.082,0.000
1759622141.864,105.469,-74.219,-59.082,53.711,0.000
1759622141.868,130.859,-79.590,-61.035,57.617,0.000
1759622141.872,63.965,-78.613,-61.035,72.754,0.000
1759622141.876,47.852,-75.684,-62.500,97.168,0.000
1759622141.880,101.074,-75.684,-67.383,98.145,0.000
1759622141.884,133.301,-80.566,-63.477,82.520,0.000
1759622141.888,73.242,-83.008,-60.059,72.754,0.000
1759622141.892,36.133,-79.590,-67.383,86.914,0.000
1759622141.896,93.750,-76.660,-73.242,86.426,0.000
1759622141.900,145.020,-79.102,-69.824,77.637,0.000
1759622141.903,89.355,-82.031,-67.383,81.543,0.000
1759622141.907,34.180,-80.078,-63.477,104.980,0.000
1759622141.911,65.430,-77.148,-59.570,114.258,0.000
1759622141.915,137.207,-78.613,-64.453,99.609,0.000
1759622141.919,124.023,-77.148,-61.523,86.914,0.000
1759622141.923,66.406,-71.777,-57.617,100.586,0.000
1759622141.927,58.594,-69.824,-60.059,95.215,0.000
1759622141.931,113.770,-71.289,-59.570,70.312,0.000
1759622141.935,118.164,-77.637,-62.988,62.012,0.000
1759622141.939,48.340,-80.566,-68.359,74.219,0.000
1759622141.943,29.785,-79.102,-71.777,77.637,0.000
1759622141.946,82.520,-75.195,-69.336,62.500,0.000
1759622141.950,127.930,-76.172,-67.383,54.688,0.000
1759622141.954,55.176,-80.566,-70.801,61.523,0.000
1759622141.958,1.953,-78.613,-78.125,65.430,0.000
1759622141.962,48.828,-79.590,-72.266,48.828,0.000
1759622141.966,104.004,-77.637,-63.965,41.016,0.000
1759622141.970,65.430,-76.660,-67.383,41.992,0.000
1759622141.974,12.207,-76.172,-66.406,52.734,0.000
1759622141.978,20.508,-71.777,-71.777,55.176,0.000
1759622141.982,82.031,-64.941,-72.754,37.109,0.000
1759622141.985,74.707,-60.547,-72.266,18.555,0.000
1759622141.989,-2.930,-64.941,-75.684,30.273,0.000
1759622141.993,-7.812,-65.430,-73.242,45.898,0.000
1759622141.997,69.824,-62.500,-72.754,29.785,0.000
1759622142.001,95.215,-67.383,-72.754,19.531,0.000
1759622142.005,15.625,-70.801,-74.707,29.785,0.000
1759622142.009,-14.648,-66.406,-76.660,32.227,0.000
1759622142.013,51.758,-67.383,-75.195,29.297,0.000
1759622142.017,97.168,-65.918,-67.871,8.789,0.000
1759622142.021,18.555,-62.500,-65.918,-5.371,0.000
1759622142.025,-32.715,-62.988,-65.918,21.484,0.000
1759622142.028,36.621,-62.988,-64.941,19.043,0.000
1759622142.032,97.168,-58.105,-64.941,-7.324,0.000
1759622142.036,10.254,-54.688,-73.730,-19.043,0.000
1759622142.040,-55.664,-59.082,-68.359,9.277,0.000
1759622142.044,-22.949,-66.895,-62.012,21.484,0.000
1759622142.048,39.551,-64.453,-70.801,0.000,0.000
1759622142.052,31.738,-59.082,-68.359,-10.742,0.000
1759622142.056,-30.273,-57.129,-61.035,-1.953,0.000
1759622142.060,-37.598,-59.570,-58.105,8.789,0.000
1759622142.064,26.367,-56.641,-53.223,-1.465,0.000
1759622142.067,51.270,-53.223,-52.246,-21.973,0.000
1759622142.071,-6.836,-53.711,-57.129,-15.137,0.000
1759622142.075,-19.531,-51.270,-56.152,5.371,0.000
1759622142.079,22.461,-52.246,-58.594,-7.812,0.000
1759622142.083,62.012,-55.176,-62.988,-31.738,0.000
1759622142.087,18.555,-60.547,-59.570,-28.809,0.000
1759622142.091,-31.738,-58.105,-53.223,-7.812,0.000
1759622142.095,-11.719,-48.828,-51.758,-8.301,0.000
1759622142.099,39.062,-49.316,-55.176,-24.414,0.000
1759622142.103,20.996,-52.734,-53.223,-33.203,0.000
1759622142.107,-29.785,-50.781,-53.711,-15.137,0.000
1759622142.110,-24.902,-52.246,-57.617,-4.883,0.000
1759622142.114,37.598,-58.594,-59.082,-14.648,0.000
1759622142.118,43.457,-58.105,-59.570,-34.180,0.000
1759622142.122,-26.855,-52.246,-59.570,-34.668,0.000
1759622142.126,-39.062,-44.922,-60.547,-18.555,0.000
1759622142.130,13.672,-41.504,-58.105,-24.902,0.000
1759622142.134,44.922,-41.504,-54.199,-34.668,0.000
1759622142.138,-3.418,-40.527,-57.617,-25.879,0.000
1759622142.142,-36.621,-40.039,-57.617,-14.160,0.000
1759622142.146,13.184,-47.363,-55.664,-32.227,0.000
1759622142.149,54.199,-49.316,-58.594,-38.086,0.000
1759622142.153,-18.555,-46.387,-56.641,-19.043,0.000
1759622142.157,-72.266,-49.316,-54.688,-17.090,0.000
1759622142.161,-38.574,-48.340,-55.176,-29.297,0.000
1759622142.165,33.691,-41.504,-52.246,-33.691,0.000
1759622142.169,19.043,-38.574,-51.758,-41.992,0.000
1759622142.173,-42.969,-41.992,-57.617,-39.062,0.000
1759622142.177,-28.320,-45.410,-60.547,-29.785,0.000
1759622142.181,22.461,-42.969,-56.152,-33.203,0.000
1759622142.185,18.066,-46.875,-53.711,-52.246,0.000
1759622142.189,-41.992,-52.246,-55.176,-42.969,0.000
1759622142.192,-57.129,-54.688,-56.152,-25.879,0.000
1759622142.196,15.625,-54.199,-61.523,-49.805,0.000
1759622142.200,40.527,-52.734,-64.453,-75.195,0.000
1759622142.204,-42.480,-50.293,-62.988,-53.223,0.000
1759622142.208,-80.566,-52.246,-65.430,-42.969,0.000
1759622142.212,-34.180,-50.293,-64.453,-69.824,0.000
1759622142.216,39.551,-43.457,-59.570,-74.707,0.000
1759622142.220,0.977,-44.922,-55.664,-61.035,0.000
1759622142.224,-69.824,-45.410,-56.152,-26.855,0.000
1759622142.228,-46.387,-45.410,-54.688,-25.879,0.000
1759622142.231,28.809,-49.316,-55.176,-38.086,0.000
1759622142.235,18.066,-49.805,-60.547,-54.688,0.000
1759622142.239,-61.035,-49.805,-62.500,-41.992,0.000
1759622142.243,-65.430,-51.758,-60.547,-29.297,0.000
1759622142.247,3.418,-49.316,-59.082,-58.105,0.000
1759622142.251,27.344,-46.875,-57.617,-65.918,0.000
1759622142.255,-23.438,-43.945,-56.641,-45.410,0.000
1759622142.259,-47.363,-42.480,-54.688,-26.367,0.000
1759622142.263,-2.930,-44.434,-54.688,-39.062,0.000
1759622142.267,20.508,-42.969,-61.523,-50.293,0.000
1759622142.271,-33.203,-40.527,-60.059,-33.203,0.000
1759622142.274,-71.289,-41.016,-54.688,-24.414,0.000
1759622142.278,-40.039,-43.945,-49.316,-36.133,0.000
1759622142.282,34.180,-47.852,-47.852,-45.898,0.000
1759622142.286,-1.465,-43.457,-52.246,-41.016,0.000
1759622142.290,-72.754,-40.527,-53.711,-36.133,0.000
1759622142.294,-49.316,-41.992,-57.129,-49.805,0.000
1759622142.298,34.668,-40.039,-56.641,-56.152,0.000
1759622142.302,18.066,-39.551,-56.641,-53.711,0.000
1759622142.306,-58.594,-42.480,-63.477,-39.062,0.000
1759622142.310,-53.711,-48.828,-62.500,-37.109,0.000
1759622142.314,8.301,-48.340,-59.082,-55.176,0.000
1759622142.317,18.555,-44.922,-61.523,-61.523,0.000
1759622142.321,-46.387,-46.875,-64.453,-45.898,0.000
1759622142.325,-80.078,-54.199,-67.383,-38.574,0.000
1759622142.329,-29.785,-57.129,-61.035,-47.852,0.000
1759622142.333,32.715,-48.828,-62.012,-53.223,0.000
1759622142.337,-12.695,-46.875,-67.871,-46.387,0.000
1759622142.341,-61.523,-51.270,-63.965,-29.785,0.000
1759622142.345,-41.992,-54.688,-59.082,-43.457,0.000
1759622142.349,21.973,-51.270,-56.152,-55.176,0.000
1759622142.353,6.348,-47.852,-55.664,-56.641,0.000
1759622142.356,-64.941,-49.805,-59.082,-39.062,0.000
1759622142.360,-57.617,-49.316,-56.641,-31.250,0.000
1759622142.364,25.391,-48.340,-55.664,-49.316,0.000
1759622142.368,29.297,-52.246,-55.664,-61.523,0.000
1759622142.372,-30.273,-48.828,-55.664,-40.527,0.000
1759622142.376,-40.527,-47.852,-56.641,-25.391,0.000
1759622142.380,-7.812,-55.176,-53.223,-45.410,0.000
1759622142.384,19.531,-51.270,-51.270,-66.406,0.000
1759622142.388,-32.227,-46.875,-49.805,-64.453,0.000
1759622142.392,-27.344,-48.340,-49.805,-41.504,0.000
1759622142.395,15.625,-48.340,-51.758,-39.551,0.000
1759622142.399,34.668,-46.387,-54.199,-59.570,0.000
1759622142.403,-17.090,-43.945,-54.688,-50.781,0.000
1759622142.407,-80.566,-47.852,-46.387,-43.457,0.000
1759622142.411,-38.574,-49.805,-48.340,-57.129,0.000
1759622142.415,32.715,-44.434,-53.711,-62.500,0.000
1759622142.419,11.719,-42.480,-53.711,-66.895,0.000
1759622142.423,-61.035,-49.805,-56.152,-55.664,0.000
1759622142.427,-65.430,-55.664,-53.711,-56.641,0.000
1759622142.431,15.625,-50.293,-50.293,-68.359,0.000
1759622142.435,42.969,-46.387,-51.270,-72.266,0.000
1759622142.438,-29.785,-54.688,-59.082,-69.824,0.000
1759622142.442,-70.801,-54.199,-59.082,-60.059,0.000
1759622142.446,-18.555,-49.316,-54.199,-67.871,0.000
1759622142.450,33.691,-49.805,-56.641,-71.777,0.000
1759622142.454,-25.391,-50.781,-51.758,-64.453,0.000
1759622142.458,-71.777,-53.223,-53.711,-61.035,0.000
1759622142.462,-27.344,-54.199,-62.988,-71.777,0.000
1759622142.466,26.855,-55.176,-60.547,-80.566,0.000
1759622142.470,-2.930,-54.199,-54.199,-64.453,0.000
1759622142.474,-45.898,-53.711,-58.105,-52.246,0.000
1759622142.478,-37.598,-53.223,-56.641,-54.688,0.000
1759622142.481,11.230,-53.711,-54.199,-58.105,0.000
1759622142.485,8.789,-53.711,-62.500,-71.289,0.000
1759622142.489,-48.828,-49.316,-61.035,-61.035,0.000
1759622142.493,-48.340,-47.852,-49.805,-42.969,0.000
1759622142.497,20.508,-45.410,-47.852,-58.105,0.000
1759622142.501,37.598,-41.016,-49.805,-74.707,0.000
1759622142.505,-31.250,-44.434,-52.734,-71.289,0.000
1759622142.509,-58.594,-45.898,-52.734,-54.688,0.000
1759622142.513,-9.766,-38.574,-53.711,-64.941,0.000
1759622142.517,40.527,-36.133,-59.570,-80.566,0.000
1759622142.520,-23.438,-42.480,-63.477,-72.754,0.000
1759622142.524,-77.637,-44.434,-58.105,-42.480,0.000
1759622142.528,-32.227,-45.410,-51.758,-50.781,0.000
1759622142.532,22.949,-46.387,-52.246,-82.031,0.000
1759622142.536,-1.953,-42.480,-50.781,-75.195,0.000
1759622142.540,-60.547,-42.480,-48.340,-43.457,0.000
1759622142.544,-50.293,-44.922,-49.805,-45.898,0.000
1759622142.548,26.367,-41.504,-50.781,-63.477,0.000
1759622142.552,13.672,-46.387,-53.711,-65.430,0.000
1759622142.556,-61.523,-53.223,-60.547,-61.523,0.000
1759622142.560,-70.801,-54.199,-62.012,-51.270,0.000
1759622142.563,-5.371,-54.688,-58.105,-56.641,0.000
1759622142.567,21.484,-59.570,-56.152,-77.148,0.000
1759622142.571,-39.551,-56.641,-55.664,-50.293,0.000
1759622142.575,-71.289,-51.758,-57.129,-35.156,0.000
1759622142.579,-21.973,-52.246,-61.035,-57.129,0.000
1759622142.583,49.316,-48.828,-62.500,-65.430,0.000
1759622142.587,-4.883,-50.293,-60.547,-66.895,0.000
1759622142.591,-84.473,-48.340,-56.152,-50.293,0.000
1759622142.595,-55.176,-49.805,-58.594,-42.480,0.000
1759622142.599,10.254,-58.594,-58.105,-62.012,0.000
1759622142.603,-13.672,-60.547,-59.082,-75.684,0.000
1759622142.606,-68.359,-56.152,-61.035,-52.734,0.000
1759622142.610,-53.223,-51.270,-54.199,-49.316,0.000
1759622142.614,24.414,-48.340,-51.758,-37.109,0.000
1759622142.618,30.762,-50.781,-57.129,-51.270,0.000
1759622142.622,-36.621,-50.293,-57.129,-61.523,0.000
1759622142.626,-41.504,-42.480,-53.711,-44.434,0.000
1759622142.630,-2.441,-41.992,-56.152,-59.082,0.000
1759622142.634,29.785,-49.805,-59.082,-69.336,0.000
1759622142.638,-7.812,-44.922,-55.176,-59.082,0.000
1759622142.642,-47.363,-46.387,-49.805,-35.645,0.000
1759622142.645,-15.625,-52.246,-51.758,-46.875,0.000
1759622142.649,25.879,-49.805,-54.199,-65.918,0.000
1759622142.653,-36.621,-51.270,-54.199,-68.848,0.000
1759622142.657,-68.848,-46.875,-51.270,-51.758,0.000
1759622142.661,-11.230,-48.340,-51.270,-28.320,0.000
1759622142.665,45.898,-50.293,-57.129,-30.762,0.000
1759622142.669,7.324,-50.781,-54.688,-60.547,0.000
1759622142.673,-65.918,-53.711,-53.223,-54.199,0.000
1759622142.677,-45.898,-50.293,-57.129,-28.809,0.000
1759622142.681,26.367,-51.758,-59.570,-39.062,0.000
1759622142.685,29.785,-52.246,-61.523,-59.570,0.000
1759622142.688,-41.992,-49.316,-55.176,-40.527,0.000
1759622142.692,-67.383,-50.781,-55.664,-24.414,0.000
1759622142.696,-5.859,-55.176,-60.059,-45.410,0.000
1759622142.700,34.180,-56.641,-60.547,-63.477,0.000
1759622142.704,-9.277,-55.664,-59.570,-39.551,0.000
1759622142.708,-56.641,-60.547,-59.570,-19.043,0.000
1759622142.712,-26.855,-62.012,-59.570,-51.270,0.000
1759622142.716,28.320,-64.941,-54.688,-59.082,0.000
1759622142.720,-25.879,-69.336,-53.711,-48.340,0.000
1759622142.724,-79.102,-58.105,-52.734,-37.109,0.000
1759622142.727,-45.898,-44.922,-55.176,-41.504,0.000
1759622142.731,42.969,-44.434,-62.012,-53.223,0.000
1759622142.735,20.508,-46.875,-64.941,-50.293,0.000
1759622142.739,-67.871,-48.340,-66.406,-26.855,0.000
1759622142.743,-55.176,-50.781,-62.012,-10.742,0.000
1759622142.747,14.160,-52.246,-57.617,-32.227,0.000
1759622142.751,29.297,-54.688,-57.129,-45.898,0.000
1759622142.755,-39.551,-54.688,-53.223,-39.062,0.000
1759622142.759,-57.617,-51.758,-53.223,-26.367,0.000
1759622142.763,2.930,-46.387,-52.734,-33.691,0.000
1759622142.767,38.574,-46.387,-52.734,-51.270,0.000
1759622142.770,-35.156,-53.711,-57.617,-42.969,0.000
1759622142.774,-65.430,-56.641,-57.129,-19.531,0.000
1759622142.778,-2.441,-52.734,-52.734,-20.508,0.000
1759622142.782,33.691,-54.199,-52.734,-36.133,0.000
1759622142.786,-12.207,-56.152,-56.152,-36.621,0.000
1759622142.790,-45.898,-52.246,-55.176,-25.879,0.000
1759622142.794,-8.301,-52.246,-48.828,-19.043,0.000
1759622142.798,28.809,-43.945,-49.805,-32.227,0.000
1759622142.802,10.742,-42.480,-53.711,-44.922,0.000
1759622142.806,-38.086,-52.246,-51.270,-23.926,0.000
1759622142.809,-51.270,-56.152,-52.246,-14.160,0.000
1759622142.813,13.672,-61.035,-51.270,-23.926,0.000
1759622142.817,50.293,-65.430,-48.828,-44.434,0.000
1759622142.821,-27.344,-73.242,-51.758,-45.898,0.000
1759622142.825,-58.594,-83.496,-59.082,-25.391,0.000
1759622142.829,-14.648,-83.496,-61.523,-40.039,0.000
1759622142.833,20.996,-83.984,-58.105,-53.223,0.000
1759622142.837,-19.531,-86.426,-58.594,-38.574,0.000
1759622142.841,-63.965,-79.590,-59.570,-26.367,0.000
1759622142.845,-45.898,-79.590,-65.918,-48.828,0.000
1759622142.849,23.926,-79.102,-71.289,-59.570,0.000
1759622142.852,3.418,-72.266,-68.848,-52.734,0.000
1759622142.856,-58.105,-70.312,-72.266,-46.875,0.000
1759622142.860,-56.152,-72.266,-73.730,-52.246,0.000
1759622142.864,-4.883,-71.289,-64.941,-69.824,0.000
1759622142.868,29.297,-69.824,-62.500,-79.102,0.000
1759622142.872,-30.762,-66.895,-64.453,-63.965,0.000
1759622142.876,-73.242,-60.059,-60.547,-45.898,0.000
1759622142.880,-4.883,-57.129,-62.012,-57.129,0.000
1759622142.884,23.926,-55.664,-62.988,-72.266,0.000
1759622142.888,-48.340,-49.316,-64.453,-61.523,0.000
1759622142.891,-78.125,-46.875,-65.918,-33.203,0.000
1759622142.895,-8.301,-46.387,-64.453,-44.434,0.000
1759622142.899,58.594,-47.363,-66.406,-62.500,0.000
1759622142.903,-14.160,-54.688,-67.383,-51.270,0.000
1759622142.907,-83.984,-56.152,-61.035,-37.598,0.000
1759622142.911,-45.410,-53.711,-55.176,-39.062,0.000
1759622142.915,33.691,-49.805,-55.664,-42.480,0.000
1759622142.919,23.926,-48.828,-58.594,-37.598,0.000
1759622142.923,-28.809,-53.711,-57.617,-21.484,0.000
1759622142.927,-44.922,-51.270,-56.152,-28.320,0.000
1759622142.931,0.977,-47.363,-54.199,-44.922,0.000
1759622142.934,13.672,-46.387,-57.617,-52.246,0.000
1759622142.938,-47.363,-50.781,-58.594,-43.457,0.000
1759622142.942,-55.664,-52.246,-56.641,-41.016,0.000
1759622142.946,22.461,-42.480,-57.129,-38.574,0.000
1759622142.950,62.988,-42.480,-61.523,-55.664,0.000
1759622142.954,-1.465,-45.410,-57.617,-60.547,0.000
1759622142.958,-11.719,-41.992,-49.805,-27.832,0.000
1759622142.962,19.531,-41.016,-51.270,-41.992,0.000
1759622142.966,-6.348,-41.992,-55.664,-59.082,0.000
1759622142.970,-26.367,-43.457,-56.641,-50.293,0.000
1759622142.974,-59.570,-42.969,-57.617,-40.527,0.000
1759622142.977,-79.102,-44.922,-61.523,-38.574,0.000
1759622142.981,-4.883,-48.828,-61.523,-45.898,0.000
1759622142.985,6.348,-47.852,-60.547,-46.387,0.000
1759622142.989,-56.641,-44.922,-59.570,-24.414,0.000
1759622142.993,-39.062,-48.340,-58.594,-11.230,0.000
1759622142.997,43.457,-53.223,-54.688,-30.762,0.000
1759622143.001,38.574,-55.176,-57.129,-49.805,0.000
1759622143.005,-43.945,-58.105,-59.570,-33.691,0.000
1759622143.009,-62.500,-53.223,-55.176,-17.578,0.000
1759622143.013,0.488,-46.875,-54.199,-31.250,0.000
1759622143.016,48.828,-49.316,-52.734,-39.551,0.000
1759622143.020,-7.324,-54.688,-52.734,-39.062,0.000
1759622143.024,-52.734,-60.059,-52.246,-29.785,0.000
1759622143.028,-12.207,-60.059,-47.852,-29.785,0.000
1759622143.032,58.594,-53.711,-49.805,-39.062,0.000
1759622143.036,47.363,-53.711,-49.805,-32.715,0.000
1759622143.040,-31.738,-49.316,-50.293,-24.902,0.000
1759622143.044,-36.133,-42.969,-49.316,-33.203,0.000
1759622143.048,43.457,-43.945,-48.828,-39.551,0.000
1759622143.052,31.738,-43.945,-52.734,-52.734,0.000
1759622143.056,-42.969,-45.410,-55.176,-43.457,0.000
1759622143.059,-55.176,-44.922,-54.199,-36.133,0.000
1759622143.063,15.625,-41.992,-54.688,-49.805,0.000
1759622143.067,41.016,-41.992,-55.176,-56.641,0.000
1759622143.071,-39.551,-47.363,-57.129,-50.293,0.000
1759622143.075,-62.500,-50.293,-60.059,-40.527,0.000
1759622143.079,-5.859,-49.316,-61.035,-44.922,0.000
1759622143.083,33.691,-49.316,-60.059,-57.617,0.000
1759622143.087,-14.160,-53.711,-60.547,-61.523,0.000
1759622143.091,-55.176,-53.711,-60.059,-41.504,0.000
1759622143.095,-28.320,-52.246,-54.688,-48.340,0.000
1759622143.098,27.344,-54.199,-57.129,-69.824,0.000
1759622143.102,-6.836,-51.758,-63.477,-69.824,0.000
1759622143.106,-70.801,-54.688,-61.035,-55.664,0.000
1759622143.110,-51.758,-58.594,-56.152,-57.617,0.000
1759622143.114,21.973,-50.293,-54.688,-66.406,0.000
1759622143.118,27.344,-44.434,-51.270,-73.730,0.000
1759622143.122,-37.109,-44.434,-50.293,-64.941,0.000
1759622143.126,-53.223,-44.922,-50.781,-40.039,0.000
1759622143.130,1.465,-46.387,-51.758,-51.270,0.000
1759622143.134,23.926,-48.828,-49.316,-83.496,0.000
1759622143.138,-38.086,-41.504,-33.203,-73.730,0.000
1759622143.141,-80.566,-27.832,-36.133,-61.523,0.000
1759622143.145,-46.875,-24.414,-53.223,-86.426,0.000
1759622143.145,-46.875,-24.414,-53.223,-86.426,0.000
1759622143.149,3.418,-36.133,-58.594,-106.445,0.000
1759622143.153,-72.266,-44.434,-51.270,-123.535,0.000
1759622143.157,-144.043,-33.691,-39.551,-122.559,0.000
1759622143.161,-125.000,-25.879,-43.945,-154.785,0.000
1759622143.165,-83.496,-31.738,-49.805,-199.219,0.000
1759622143.169,-127.441,-26.367,-40.527,-197.266,0.000
1759622143.173,-212.402,-15.137,-34.180,-204.590,0.000
1759622143.177,-242.188,-18.555,-31.738,-250.000,0.000
1759622143.180,-209.473,-17.090,-24.414,-289.551,0.000
1759622143.184,-217.285,-3.906,-30.762,-319.824,0.000
1759622143.188,-300.293,4.395,-26.367,-312.012,0.000
1759622143.192,-326.172,6.348,-12.695,-314.453,0.000
1759622143.196,-258.301,-5.371,-25.391,-331.543,0.000
1759622143.200,-213.379,-11.719,-32.715,-332.520,0.000
1759622143.204,-280.762,-10.742,-32.715,-317.871,0.000
1759622143.208,-335.449,-9.277,-28.809,-302.734,0.000
1759622143.212,-260.254,-3.906,-17.578,-306.641,0.000
1759622143.216,-172.363,-9.766,-12.207,-296.387,0.000
1759622143.220,-240.234,-12.695,-17.090,-275.879,0.000
1759622143.223,-294.434,-12.207,-19.043,-238.281,0.000
1759622143.227,-244.141,-9.766,-27.344,-237.305,0.000
1759622143.231,-161.133,-4.883,-29.297,-250.000,0.000
1759622143.235,-163.086,-3.906,-22.461,-237.305,0.000
1759622143.239,-220.215,-1.953,-18.555,-204.102,0.000
1759622143.243,-194.336,-4.395,-21.973,-192.871,0.000
1759622143.247,-87.402,-10.254,-21.973,-200.195,0.000
1759622143.251,-65.430,-9.277,-13.672,-184.082,0.000
1759622143.255,-149.414,-11.230,-13.672,-156.250,0.000
1759622143.259,-143.555,-19.043,-20.996,-130.371,0.000
1759622143.262,-52.246,-20.996,-24.414,-123.535,0.000
1759622143.266,-13.672,-21.973,-29.297,-120.117,0.000
1759622143.270,-54.199,-26.855,-37.109,-102.051,0.000
1759622143.274,-50.781,-31.250,-39.551,-52.734,0.000
1759622143.278,43.945,-40.039,-41.016,-35.156,0.000
1759622143.282,125.000,-53.711,-47.852,-53.711,0.000
1759622143.286,33.203,-61.523,-51.758,-39.062,0.000
1759622143.290,-49.805,-62.988,-50.293,3.418,0.000
1759622143.294,2.930,-65.918,-52.734,20.996,0.000
1759622143.298,95.215,-69.824,-52.246,29.297,0.000
1759622143.302,96.680,-74.707,-51.270,24.902,0.000
1759622143.305,40.039,-76.172,-54.199,30.762,0.000
1759622143.309,58.105,-76.660,-56.152,49.316,0.000
1759622143.313,118.652,-81.055,-61.035,49.316,0.000
1759622143.317,133.789,-81.055,-62.500,41.016,0.000
1759622143.321,84.473,-70.801,-59.082,52.246,0.000
1759622143.325,73.242,-71.289,-61.035,68.359,0.000
1759622143.329,125.977,-72.754,-65.430,57.129,0.000
1759622143.333,154.297,-74.707,-68.848,37.598,0.000
1759622143.337,104.004,-82.520,-68.848,44.434,0.000
1759622143.341,75.684,-75.684,-57.617,77.148,0.000
1759622143.345,93.750,-69.336,-54.688,71.289,0.000
1759622143.348,138.184,-77.148,-57.617,56.152,0.000
1759622143.352,105.469,-81.543,-59.570,47.363,0.000
1759622143.356,43.945,-82.031,-65.430,35.645,0.000
1759622143.360,65.918,-74.219,-52.246,35.645,0.000
1759622143.364,117.188,-71.289,-49.316,35.645,0.000
1759622143.368,110.840,-78.125,-63.965,17.090,0.000
1759622143.372,51.270,-69.336,-59.570,8.301,0.000
1759622143.376,11.230,-67.871,-43.945,-0.488,0.000
1759622143.380,40.039,-65.918,-53.223,-37.598,0.000
1759622143.384,72.754,-54.199,-52.246,-33.203,0.000
1759622143.387,0.000,-51.758,-55.176,-25.879,0.000
1759622143.391,-54.199,-52.734,-62.988,-37.598,0.000
1759622143.395,-19.531,-58.594,-49.316,-71.289,0.000
1759622143.399,8.789,-58.594,-56.152,-117.188,0.000
1759622143.403,-57.617,-43.457,-51.758,-143.555,0.000
1759622143.407,-174.805,-30.273,-47.363,-167.480,0.000
1759622143.411,-192.871,-30.273,-49.805,-197.754,0.000
1759622143.415,-126.953,-25.879,-46.875,-228.516,0.000
1759622143.419,-157.715,-16.113,-46.387,-246.094,0.000
1759622143.423,-227.051,-10.254,-42.969,-230.469,0.000
1759622143.427,-223.145,-14.160,-39.551,-221.191,0.000
1759622143.430,-149.902,-22.949,-38.086,-220.703,0.000
1759622143.434,-123.535,-19.531,-41.992,-221.191,0.000
1759622143.438,-161.133,-14.648,-52.734,-197.754,0.000
1759622143.442,-151.367,-15.625,-57.617,-162.598,0.000
1759622143.446,-77.148,-18.555,-62.988,-148.438,0.000
1759622143.450,-10.742,-30.762,-67.383,-135.742,0.000
1759622143.454,-31.250,-42.969,-63.965,-98.145,0.000
1759622143.458,-75.195,-53.223,-63.477,-46.387,0.000
1759622143.462,-48.340,-59.082,-64.941,-53.223,0.000
1759622143.466,34.668,-57.617,-66.406,-56.641,0.000
1759622143.469,9.766,-55.176,-70.801,-30.273,0.000
1759622143.473,-26.855,-58.594,-68.848,-6.348,0.000
1759622143.477,12.207,-63.477,-64.453,2.441,0.000
1759622143.481,90.820,-64.941,-67.383,-2.930,0.000
1759622143.485,74.219,-67.871,-73.242,0.977,0.000
1759622143.489,7.812,-71.289,-71.777,28.809,0.000
1759622143.493,17.090,-70.801,-74.219,39.062,0.000
1759622143.497,97.656,-70.801,-77.148,36.621,0.000
1759622143.501,110.840,-79.590,-73.730,33.691,0.000
1759622143.505,44.922,-80.566,-74.219,36.621,0.000
1759622143.509,34.180,-76.172,-74.219,52.246,0.000
1759622143.512,66.895,-72.266,-74.219,50.293,0.000
1759622143.516,101.074,-69.336,-69.824,35.156,0.000
1759622143.520,74.707,-70.801,-71.777,35.645,0.000
1759622143.524,40.527,-71.777,-76.660,54.199,0.000
1759622143.528,44.434,-72.266,-77.637,43.945,0.000
1759622143.532,104.004,-70.312,-83.008,19.531,0.000
1759622143.536,101.562,-60.547,-77.148,30.762,0.000
1759622143.540,36.133,-62.012,-68.848,48.340,0.000
1759622143.544,44.922,-67.871,-64.453,57.617,0.000
1759622143.548,108.887,-61.523,-64.453,51.758,0.000
1759622143.551,82.031,-63.477,-67.871,24.414,0.000
1759622143.555,28.320,-64.941,-67.383,33.203,0.000
1759622143.559,46.875,-56.641,-63.965,46.387,0.000
1759622143.563,87.891,-60.547,-62.988,27.344,0.000
1759622143.567,81.055,-63.477,-59.570,12.695,0.000
1759622143.571,13.672,-61.035,-59.570,20.508,0.000
1759622143.575,-12.695,-62.988,-62.500,25.879,0.000
1759622143.579,61.523,-61.523,-62.500,24.414,0.000
1759622143.583,107.422,-62.012,-64.941,17.578,0.000
1759622143.587,40.039,-63.477,-62.500,15.625,0.000
1759622143.591,12.695,-63.477,-57.129,35.156,0.000
1759622143.594,50.781,-60.547,-60.059,27.832,0.000
1759622143.598,93.750,-62.012,-59.082,8.301,0.000
1759622143.602,50.781,-64.453,-57.617,0.000,0.000
1759622143.606,-13.672,-62.012,-58.105,12.695,0.000
1759622143.610,-1.953,-59.570,-58.105,6.348,0.000
1759622143.614,58.105,-59.570,-61.035,-8.789,0.000
1759622143.618,60.547,-56.152,-64.453,-13.184,0.000
1759622143.622,-4.883,-53.223,-66.895,6.836,0.000
1759622143.626,-14.160,-57.129,-69.336,9.766,0.000
1759622143.630,53.223,-61.035,-69.824,-2.930,0.000
1759622143.633,64.941,-60.547,-66.895,-7.324,0.000
1759622143.637,4.395,-55.176,-68.848,-16.113,0.000
1759622143.641,-24.902,-57.617,-71.289,-10.254,0.000
1759622143.645,10.742,-56.152,-70.312,-27.344,0.000
1759622143.649,69.336,-51.270,-71.289,-30.273,0.000
1759622143.653,19.043,-52.734,-65.430,-16.113,0.000
1759622143.657,-45.410,-53.223,-63.477,-18.066,0.000
1759622143.661,12.695,-47.852,-64.453,-8.301,0.000
1759622143.665,77.637,-45.410,-61.523,-30.273,0.000
1759622143.669,23.438,-51.758,-63.477,-60.547,0.000
1759622143.673,-37.598,-56.152,-61.523,-37.598,0.000
1759622143.676,-37.598,-55.664,-57.617,-29.785,0.000
1759622143.680,21.973,-55.176,-55.664,-44.434,0.000
1759622143.684,20.996,-56.641,-54.688,-59.082,0.000
1759622143.688,-32.227,-57.129,-60.547,-57.617,0.000
1759622143.692,-43.457,-62.012,-67.871,-52.246,0.000
1759622143.696,2.441,-63.477,-66.895,-50.781,0.000
1759622143.700,31.738,-58.105,-62.988,-70.312,0.000
1759622143.704,-20.508,-56.641,-60.059,-68.848,0.000
1759622143.708,-44.434,-51.758,-57.129,-33.691,0.000
1759622143.712,-6.348,-52.734,-62.988,-40.527,0.000
1759622143.716,56.641,-58.105,-67.871,-59.082,0.000
1759622143.719,4.395,-56.641,-64.941,-62.500,0.000
1759622143.723,-69.824,-59.570,-63.477,-47.852,0.000
1759622143.727,-35.645,-65.430,-65.430,-51.270,0.000
1759622143.731,26.855,-69.824,-65.430,-70.801,0.000
1759622143.735,1.465,-68.359,-65.918,-73.242,0.000
1759622143.739,-45.898,-66.406,-59.570,-42.480,0.000
1759622143.743,-33.691,-67.871,-58.594,-35.645,0.000
1759622143.747,35.645,-60.547,-66.406,-65.918,0.000
1759622143.751,48.340,-52.246,-63.477,-77.637,0.000
1759622143.755,-29.297,-64.453,-61.035,-55.176,0.000
1759622143.758,-56.641,-68.359,-57.129,-51.270,0.000
1759622143.762,-2.441,-56.152,-56.152,-83.008,0.000
1759622143.766,44.922,-55.664,-58.105,-93.750,0.000
1759622143.770,-20.020,-59.570,-61.523,-75.684,0.000
1759622143.774,-65.918,-57.129,-69.336,-59.082,0.000
1759622143.778,-14.160,-57.617,-71.777,-85.938,0.000
1759622143.782,40.039,-60.059,-69.336,-95.703,0.000
1759622143.786,-5.859,-63.965,-64.941,-76.172,0.000
1759622143.790,-54.199,-60.547,-66.406,-65.430,0.000
1759622143.794,-8.789,-52.734,-66.895,-67.871,0.000
1759622143.798,37.598,-55.664,-64.941,-74.707,0.000
1759622143.801,-5.371,-53.711,-63.965,-78.613,0.000
1759622143.805,-62.988,-54.688,-66.406,-65.430,0.000
1759622143.809,-55.664,-63.965,-68.359,-51.270,0.000
1759622143.813,7.812,-66.406,-62.988,-58.105,0.000
1759622143.817,30.762,-55.664,-64.941,-73.730,0.000
1759622143.821,-39.551,-43.945,-62.988,-52.246,0.000
1759622143.825,-60.547,-48.340,-62.012,-39.062,0.000
1759622143.829,4.883,-52.246,-64.453,-57.129,0.000
1759622143.833,51.758,-51.270,-60.059,-64.453,0.000
1759622143.837,-12.695,-51.758,-60.059,-62.012,0.000
1759622143.840,-87.891,-57.617,-66.895,-48.340,0.000
1759622143.844,-43.457,-55.664,-66.406,-54.688,0.000
1759622143.848,33.203,-53.223,-62.012,-67.383,0.000
1759622143.852,5.859,-56.641,-62.500,-62.988,0.000
1759622143.856,-56.152,-58.594,-62.988,-42.480,0.000
1759622143.860,-50.293,-59.570,-61.523,-45.898,0.000
1759622143.864,31.738,-57.617,-62.012,-58.594,0.000
1759622143.868,29.297,-49.316,-65.430,-58.594,0.000
1759622143.872,-54.688,-45.898,-63.965,-41.992,0.000
1759622143.876,-52.734,-47.363,-58.594,-13.672,0.000
1759622143.880,12.207,-47.363,-59.082,-33.203,0.000
1759622143.883,26.367,-51.270,-59.570,-66.406,0.000
1759622143.887,-54.199,-48.828,-62.500,-50.293,0.000
1759622143.891,-71.289,-47.363,-68.359,-34.180,0.000
1759622143.895,1.953,-54.688,-65.430,-44.922,0.000
1759622143.899,45.410,-54.688,-64.453,-52.734,0.000
1759622143.903,-17.090,-51.270,-64.453,-45.410,0.000
1759622143.907,-63.965,-55.664,-62.012,-28.809,0.000
1759622143.911,-21.484,-55.176,-62.988,-38.574,0.000
1759622143.915,25.391,-53.223,-63.965,-54.688,0.000
1759622143.919,-8.789,-56.641,-67.383,-51.758,0.000
1759622143.922,-77.148,-59.082,-71.777,-39.062,0.000
1759622143.926,-59.570,-54.199,-66.406,-42.480,0.000
1759622143.930,37.598,-50.293,-63.477,-60.059,0.000
1759622143.934,16.113,-54.688,-62.988,-69.824,0.000
1759622143.938,-74.219,-56.641,-62.500,-56.152,0.000
1759622143.942,-70.801,-59.570,-66.895,-50.293,0.000
1759622143.946,7.812,-55.664,-68.359,-53.223,0.000
1759622143.950,32.227,-49.805,-59.570,-55.664,0.000
1759622143.954,-40.527,-45.898,-60.059,-46.875,0.000
1759622143.958,-76.660,-44.434,-62.012,-36.133,0.000
1759622143.962,-29.785,-49.316,-59.570,-46.875,0.000
1759622143.965,38.086,-43.457,-56.152,-43.945,0.000
1759622143.969,-9.277,-39.551,-57.129,-46.875,0.000
1759622143.973,-70.801,-43.457,-61.523,-42.969,0.000
1759622143.977,-27.832,-42.969,-56.641,-38.574,0.000
1759622143.981,44.922,-41.992,-46.875,-51.270,0.000
1759622143.985,-2.930,-51.270,-46.875,-54.199,0.000
1759622143.989,-78.613,-57.617,-53.223,-37.598,0.000
1759622143.993,-64.941,-56.641,-51.270,-39.551,0.000
1759622143.997,11.719,-62.012,-56.641,-62.012,0.000
1759622144.001,22.949,-62.500,-62.500,-67.383,0.000
1759622144.005,-53.711,-54.688,-54.199,-41.016,0.000
1759622144.008,-68.848,-49.805,-50.293,-20.996,0.000
1759622144.012,0.000,-49.316,-49.316,-35.645,0.000
1759622144.016,35.645,-48.340,-48.340,-53.711,0.000
1759622144.020,-26.367,-50.293,-51.270,-40.527,0.000
1759622144.024,-52.734,-51.270,-46.387,-8.301,0.000
1759622144.028,-7.812,-49.805,-50.293,-23.926,0.000
1759622144.032,31.250,-52.246,-52.246,-45.410,0.000
1759622144.036,-14.160,-54.688,-44.922,-38.574,0.000
1759622144.040,-66.895,-54.688,-48.828,-20.996,0.000
1759622144.044,-20.996,-49.805,-46.875,-17.578,0.000
1759622144.047,50.293,-46.875,-43.457,-33.691,0.000
1759622144.051,38.086,-49.805,-48.828,-50.293,0.000
1759622144.055,-18.555,-48.340,-54.688,-42.969,0.000
1759622144.059,-60.059,-50.293,-54.688,-34.180,0.000
1759622144.063,-0.488,-55.176,-52.734,-42.969,0.000
1759622144.067,17.090,-54.688,-51.758,-49.316,0.000
1759622144.071,-43.945,-52.734,-50.293,-29.785,0.000
1759622144.075,-55.664,-50.781,-52.246,-22.949,0.000
1759622144.079,-5.371,-53.223,-56.152,-44.922,0.000
1759622144.083,35.645,-55.664,-57.129,-50.781,0.000
1759622144.087,-19.043,-48.828,-53.711,-38.574,0.000
1759622144.090,-63.965,-49.316,-50.781,-24.902,0.000
1759622144.094,-28.809,-54.199,-49.805,-34.668,0.000
1759622144.098,26.367,-53.223,-52.734,-51.758,0.000
1759622144.102,-11.230,-56.152,-61.523,-62.988,0.000
1759622144.106,-72.266,-57.617,-62.500,-36.621,0.000
1759622144.110,-50.781,-55.664,-62.988,-29.297,0.000
1759622144.114,24.902,-55.176,-63.477,-44.434,0.000
1759622144.118,19.531,-61.035,-62.500,-34.180,0.000
1759622144.122,-66.406,-65.430,-60.547,-20.020,0.000
1759622144.126,-79.590,-62.012,-57.129,-22.461,0.000
1759622144.129,-4.883,-63.965,-58.105,-37.598,0.000
1759622144.133,22.461,-64.453,-62.500,-52.734,0.000
1759622144.137,-47.363,-65.430,-64.453,-43.457,0.000
1759622144.141,-62.988,-60.059,-64.453,-23.926,0.000
1759622144.145,-3.906,-53.223,-65.918,-37.598,0.000
1759622144.149,38.086,-49.316,-63.477,-48.828,0.000
1759622144.153,2.441,-46.387,-61.523,-38.086,0.000
1759622144.157,-50.781,-48.828,-60.059,-19.043,0.000
1759622144.161,-35.645,-49.805,-60.547,-19.043,0.000
1759622144.165,23.926,-47.363,-64.941,-37.598,0.000
1759622144.169,-3.906,-44.922,-63.965,-48.340,0.000
1759622144.172,-64.453,-47.363,-62.012,-35.156,0.000
1759622144.176,-42.969,-49.316,-65.918,-33.203,0.000
1759622144.180,45.410,-48.340,-67.871,-32.227,0.000
1759622144.184,45.410,-50.293,-71.777,-39.062,0.000
1759622144.188,-50.781,-47.852,-67.383,-35.156,0.000
1759622144.192,-65.430,-49.805,-62.012,-20.020,0.000
1759622144.196,0.000,-51.758,-66.406,-32.715,0.000
1759622144.200,9.766,-50.293,-65.430,-50.781,0.000
1759622144.204,-49.316,-55.176,-65.430,-37.598,0.000
1759622144.208,-86.426,-58.594,-68.359,-24.902,0.000
1759622144.211,-27.344,-56.641,-61.523,-49.316,0.000
1759622144.215,44.922,-53.223,-58.105,-54.199,0.000
1759622144.219,-16.602,-54.199,-65.918,-41.992,0.000
1759622144.223,-81.055,-55.664,-66.895,-38.086,0.000
1759622144.227,-42.969,-55.176,-65.430,-36.621,0.000
1759622144.231,33.691,-52.734,-64.941,-48.340,0.000
1759622144.235,23.926,-45.410,-61.523,-54.199,0.000
1759622144.239,-52.734,-45.410,-58.105,-30.762,0.000
1759622144.243,-53.223,-48.828,-58.105,-22.949,0.000
1759622144.247,14.160,-48.828,-58.105,-41.504,0.000
1759622144.251,15.625,-47.363,-59.082,-42.969,0.000
1759622144.254,-43.457,-44.434,-61.523,-27.832,0.000
1759622144.258,-61.523,-46.387,-59.570,-21.484,0.000
1759622144.262,-8.789,-48.828,-59.082,-38.574,0.000
1759622144.266,28.320,-46.387,-58.105,-54.199,0.000
1759622144.270,-29.297,-49.316,-56.641,-42.969,0.000
1759622144.274,-66.895,-51.758,-54.199,-20.020,0.000
1759622144.278,-23.926,-45.898,-53.711,-27.832,0.000
1759622144.282,38.574,-42.480,-52.734,-42.480,0.000
1759622144.286,5.371,-43.457,-47.852,-34.180,0.000
1759622144.290,-59.570,-47.363,-48.828,-12.695,0.000
1759622144.293,-39.551,-52.246,-56.641,-6.836,0.000
1759622144.297,29.785,-49.805,-59.570,-21.973,0.000
1759622144.301,14.160,-43.945,-64.453,-39.551,0.000
1759622144.305,-51.270,-41.992,-64.453,-29.785,0.000
1759622144.309,-53.711,-49.805,-62.988,-13.672,0.000
1759622144.313,16.113,-53.711,-65.918,-35.156,0.000
1759622144.317,52.246,-50.293,-65.918,-61.035,0.000
1759622144.321,-29.785,-48.828,-62.500,-39.062,0.000
1759622144.325,-94.238,-47.852,-60.059,-24.902,0.000
1759622144.329,-43.945,-47.852,-59.082,-39.062,0.000
1759622144.333,11.719,-51.270,-62.012,-41.504,0.000
1759622144.336,-33.203,-53.223,-63.965,-30.273,0.000
1759622144.340,-69.824,-51.758,-60.059,-3.418,0.000
1759622144.344,-32.715,-54.688,-58.594,-23.926,0.000
1759622144.348,38.574,-56.152,-55.664,-56.641,0.000
1759622144.352,13.672,-46.387,-48.828,-39.551,0.000
1759622144.356,-52.246,-48.828,-55.176,-15.625,0.000
1759622144.360,-31.738,-53.223,-60.547,-30.273,0.000
1759622144.364,13.184,-45.410,-54.688,-46.875,0.000
1759622144.368,-2.930,-48.828,-55.176,-53.223,0.000
1759622144.372,-56.152,-52.734,-57.617,-39.062,0.000
1759622144.376,-53.711,-46.387,-56.152,-31.250,0.000
1759622144.379,10.742,-47.852,-61.523,-45.898,0.000
1759622144.383,19.043,-57.617,-64.941,-58.594,0.000
1759622144.387,-47.363,-62.012,-59.570,-46.875,0.000
1759622144.391,-80.566,-56.641,-55.176,-18.555,0.000
1759622144.395,-21.484,-55.176,-56.641,-32.227,0.000
1759622144.399,38.086,-58.594,-57.617,-41.992,0.000
1759622144.403,-24.902,-60.547,-60.059,-27.832,0.000
1759622144.407,-84.473,-61.035,-62.988,-26.367,0.000
1759622144.411,-41.504,-62.012,-59.570,-37.598,0.000
1759622144.415,23.926,-65.918,-59.082,-43.457,0.000
1759622144.418,-7.812,-64.941,-62.500,-43.457,0.000
1759622144.422,-73.730,-62.012,-62.012,-30.273,0.000
1759622144.426,-60.059,-57.617,-60.059,-26.855,0.000
1759622144.430,10.254,-52.734,-63.477,-43.945,0.000
1759622144.434,13.184,-48.828,-64.453,-58.105,0.000
1759622144.438,-56.641,-48.828,-66.406,-48.340,0.000
1759622144.442,-71.289,-51.270,-67.383,-33.691,0.000
1759622144.446,1.953,-58.105,-63.965,-44.434,0.000
1759622144.450,28.809,-54.688,-65.918,-60.059,0.000
1759622144.454,-32.715,-46.387,-62.500,-52.246,0.000
1759622144.458,-62.988,-49.805,-58.105,-29.297,0.000
1759622144.461,-27.832,-49.805,-51.270,-33.691,0.000
1759622144.465,19.531,-48.828,-54.199,-45.898,0.000
1759622144.469,-32.715,-51.758,-60.059,-45.410,0.000
1759622144.473,-76.660,-56.152,-57.617,-28.809,0.000
1759622144.477,-37.598,-58.105,-58.594,-29.785,0.000
1759622144.481,26.855,-58.594,-66.406,-46.387,0.000
1759622144.485,-9.277,-58.105,-70.312,-59.082,0.000
1759622144.489,-80.566,-60.059,-62.012,-41.016,0.000
1759622144.493,-52.246,-58.105,-53.711,-13.184,0.000
1759622144.497,14.648,-56.641,-50.781,-32.227,0.000
1759622144.500,2.441,-54.688,-53.711,-53.223,0.000
1759622144.504,-38.574,-46.875,-51.758,-30.273,0.000
1759622144.508,-66.895,-44.922,-54.688,-17.090,0.000
1759622144.512,-27.832,-44.922,-58.594,-38.086,0.000
1759622144.516,25.879,-45.410,-59.082,-44.922,0.000
1759622144.520,-40.527,-47.852,-62.988,-45.410,0.000
1759622144.524,-83.496,-46.875,-59.570,-39.551,0.000
1759622144.528,-35.156,-36.621,-56.641,-41.992,0.000
1759622144.532,20.020,-40.039,-56.641,-62.988,0.000
1759622144.536,-10.742,-44.434,-47.852,-70.312,0.000
1759622144.540,-104.980,-38.086,-47.363,-71.289,0.000
1759622144.543,-110.352,-42.480,-53.711,-86.914,0.000
1759622144.547,-32.715,-42.480,-56.152,-95.703,0.000
1759622144.551,-60.547,-35.645,-52.734,-105.957,0.000
1759622144.555,-130.859,-19.043,-47.852,-104.980,0.000
1759622144.559,-142.090,-16.113,-45.410,-120.605,0.000
1759622144.563,-92.773,-28.320,-44.434,-153.809,0.000
1759622144.567,-90.332,-15.625,-41.504,-168.945,0.000
1759622144.571,-178.711,-14.648,-32.227,-176.758,0.000
1759622144.575,-222.168,-19.531,-39.551,-189.453,0.000
1759622144.579,-174.805,-12.207,-41.992,-201.172,0.000
1759622144.582,-156.738,-9.766,-41.016,-231.934,0.000
1759622144.586,-249.512,2.441,-39.062,-252.930,0.000
1759622144.590,-315.918,16.602,-24.902,-251.953,0.000
1759622144.594,-272.461,17.578,-29.785,-262.695,0.000
1759622144.598,-198.242,5.859,-33.203,-275.391,0.000
1759622144.602,-224.609,-0.977,-30.273,-272.461,0.000
1759622144.606,-295.410,7.324,-30.273,-251.953,0.000
1759622144.610,-293.457,10.254,-31.250,-258.301,0.000
1759622144.614,-222.656,8.301,-39.062,-282.227,0.000
1759622144.618,-213.379,-1.465,-44.434,-283.691,0.000
1759622144.622,-242.676,-9.766,-38.086,-247.070,0.000
1759622144.625,-238.770,-1.953,-23.438,-216.309,0.000
1759622144.629,-190.430,1.465,-25.879,-221.680,0.000
1759622144.633,-160.156,-4.883,-37.109,-226.074,0.000
1759622144.637,-190.918,-10.254,-33.203,-196.777,0.000
1759622144.641,-208.008,-15.137,-29.297,-156.738,0.000
1759622144.645,-164.551,-16.602,-33.691,-158.691,0.000
1759622144.649,-104.980,-19.043,-34.180,-166.992,0.000
1759622144.653,-129.883,-23.926,-29.785,-142.578,0.000
1759622144.657,-171.387,-23.926,-34.180,-112.793,0.000
1759622144.661,-126.465,-26.855,-34.668,-107.910,0.000
1759622144.664,-39.551,-34.180,-34.180,-104.492,0.000
1759622144.668,-40.039,-39.551,-30.273,-76.172,0.000
1759622144.672,-88.379,-48.340,-34.180,-40.039,0.000
1759622144.676,-62.500,-48.340,-41.016,-25.391,0.000
1759622144.680,33.203,-47.363,-40.039,-20.996,0.000
1759622144.684,42.969,-53.223,-42.969,-12.695,0.000
1759622144.688,-5.371,-53.711,-45.410,6.836,0.000
1759622144.692,-8.789,-55.664,-46.387,26.855,0.000
1759622144.696,53.711,-57.617,-49.316,26.367,0.000
1759622144.700,88.867,-62.500,-52.734,14.160,0.000
1759622144.704,39.062,-64.941,-52.246,24.414,0.000
1759622144.707,19.043,-62.988,-54.688,46.387,0.000
1759622144.711,68.848,-62.988,-63.965,41.016,0.000
1759622144.715,122.070,-65.430,-63.965,33.691,0.000
1759622144.719,74.707,-72.266,-65.430,46.387,0.000
1759622144.723,29.297,-76.172,-70.312,48.340,0.000
1759622144.727,61.035,-75.684,-74.219,44.922,0.000
1759622144.731,139.160,-78.613,-75.684,58.105,0.000
1759622144.735,133.789,-83.496,-75.684,63.477,0.000
1759622144.739,50.293,-80.078,-80.078,70.801,0.000
1759622144.743,43.457,-72.754,-82.520,65.918,0.000
1759622144.747,111.816,-79.102,-82.520,54.688,0.000
1759622144.750,121.094,-85.449,-80.078,49.805,0.000
1759622144.754,47.363,-80.078,-76.660,59.082,0.000
1759622144.758,16.602,-79.102,-73.730,68.848,0.000
1759622144.762,86.426,-78.125,-73.242,47.852,0.000
1759622144.766,135.742,-72.754,-75.684,25.879,0.000
1759622144.770,64.453,-71.777,-74.707,35.645,0.000
1759622144.774,23.926,-73.730,-75.684,68.359,0.000
1759622144.778,76.172,-73.730,-80.078,54.688,0.000
1759622144.782,128.418,-68.848,-81.543,28.320,0.000
1759622144.786,80.078,-72.266,-80.566,38.086,0.000
1759622144.789,17.090,-80.566,-74.707,62.988,0.000
1759622144.793,42.969,-74.707,-69.824,52.734,0.000
1759622144.797,108.887,-71.289,-65.918,36.133,0.000
1759622144.801,94.238,-68.359,-57.617,41.992,0.000
1759622144.805,26.367,-64.453,-59.570,47.852,0.000
1759622144.809,31.250,-66.895,-63.965,45.898,0.000
1759622144.813,94.727,-66.895,-65.430,17.090,0.000
1759622144.817,91.309,-63.477,-68.848,3.906,0.000
1759622144.821,30.762,-62.988,-67.871,29.297,0.000
1759622144.825,5.859,-56.152,-64.453,25.879,0.000
1759622144.829,52.246,-52.246,-68.359,-6.836,0.000
1759622144.832,92.285,-58.105,-66.406,-20.996,0.000
1759622144.836,30.762,-58.105,-56.641,-7.812,0.000
1759622144.840,-13.184,-58.594,-55.664,9.766,0.000
1759622144.844,30.273,-60.059,-53.711,0.488,0.000
1759622144.848,90.332,-57.129,-49.805,-10.254,0.000
1759622144.852,35.645,-54.199,-47.852,-16.113,0.000
1759622144.856,-24.414,-48.340,-49.316,-3.906,0.000
1759622144.860,-5.371,-49.316,-56.152,-18.066,0.000
1759622144.864,43.457,-49.805,-55.176,-43.457,0.000
1759622144.868,22.949,-46.875,-48.828,-47.363,0.000
1759622144.871,-75.684,-45.898,-54.688,-54.199,0.000
1759622144.875,-97.168,-46.387,-52.734,-75.684,0.000
1759622144.879,-29.297,-39.062,-45.898,-103.027,0.000
1759622144.883,-20.020,-32.715,-43.457,-124.023,0.000
1759622144.887,-104.492,-38.086,-39.062,-142.578,0.000
1759622144.891,-144.043,-35.645,-35.645,-146.973,0.000
1759622144.895,-92.285,-30.762,-34.668,-164.062,0.000
1759622144.899,-67.871,-32.227,-34.668,-175.781,0.000
1759622144.903,-145.508,-32.715,-34.668,-173.828,0.000
1759622144.907,-187.500,-29.785,-38.574,-171.387,0.000
1759622144.911,-151.855,-31.738,-42.480,-183.594,0.000
1759622144.914,-87.891,-29.785,-43.457,-194.336,0.000
1759622144.918,-103.027,-28.320,-45.898,-174.805,0.000
1759622144.922,-138.672,-31.250,-41.016,-141.602,0.000
1759622144.926,-137.207,-28.809,-39.062,-147.949,0.000
1759622144.930,-79.102,-28.809,-41.504,-164.062,0.000
1759622144.934,-59.570,-30.273,-42.969,-167.969,0.000
1759622144.938,-120.605,-32.715,-45.898,-143.555,0.000
1759622144.942,-104.492,-36.621,-48.340,-132.324,0.000
1759622144.946,-52.246,-33.691,-45.898,-137.695,0.000
1759622144.950,-40.527,-34.180,-41.504,-130.371,0.000
1759622144.953,-86.426,-40.039,-41.504,-112.793,0.000
1759622144.957,-113.281,-41.992,-42.480,-91.797,0.000
1759622144.961,-59.082,-40.527,-47.852,-106.934,0.000
1759622144.965,3.906,-38.574,-48.340,-116.699,0.000
1759622144.969,-27.344,-33.691,-43.945,-92.285,0.000
1759622144.973,-62.988,-35.645,-48.828,-63.965,0.000
1759622144.977,-41.504,-39.062,-49.805,-62.988,0.000
1759622144.981,12.207,-39.062,-51.270,-69.824,0.000
1759622144.985,0.488,-46.875,-56.641,-76.660,0.000
1759622144.989,-47.852,-53.223,-57.129,-61.523,0.000
1759622144.993,-27.344,-53.223,-53.711,-48.340,0.000
1759622144.996,44.434,-52.734,-54.688,-44.434,0.000
1759622145.000,63.965,-56.641,-60.059,-43.457,0.000
1759622145.004,16.113,-54.199,-63.477,-36.621,0.000
1759622145.008,-23.438,-57.129,-62.500,-32.227,0.000
1759622145.012,23.438,-57.617,-59.082,-33.203,0.000
1759622145.016,72.266,-55.664,-58.594,-43.945,0.000
1759622145.020,16.113,-59.570,-57.129,-31.738,0.000
1759622145.024,2.441,-63.477,-58.105,-1.953,0.000
1759622145.028,48.828,-62.988,-65.918,-8.301,0.000
1759622145.032,77.637,-56.641,-67.383,-20.996,0.000
1759622145.035,29.785,-56.641,-62.988,-18.555,0.000
1759622145.039,-13.672,-57.617,-62.500,0.488,0.000
1759622145.043,25.879,-54.688,-63.477,10.254,0.000
1759622145.047,116.211,-54.688,-66.406,-1.953,0.000
1759622145.051,101.562,-64.941,-70.801,-15.625,0.000
1759622145.055,0.000,-71.289,-64.941,10.742,0.000
1759622145.059,-7.324,-67.383,-64.453,18.555,0.000
1759622145.063,73.730,-66.895,-72.266,-17.090,0.000
1759622145.067,82.520,-72.754,-72.266,-27.832,0.000
1759622145.071,5.859,-76.660,-70.312,-14.648,0.000
1759622145.075,-12.207,-74.219,-74.707,-12.207,0.000
1759622145.078,60.547,-69.336,-75.195,-20.996,0.000
1759622145.082,99.121,-67.871,-70.801,-21.973,0.000
1759622145.086,25.879,-71.289,-67.871,-16.113,0.000
1759622145.090,-11.230,-76.172,-61.035,-2.930,0.000
1759622145.094,39.062,-72.754,-58.594,-4.883,0.000
1759622145.098,98.145,-66.406,-61.035,-16.602,0.000
1759622145.102,52.734,-64.941,-62.500,-14.648,0.000
1759622145.106,-9.277,-64.453,-66.895,-4.395,0.000
1759622145.110,9.766,-63.477,-67.871,-22.949,0.000
1759622145.114,86.914,-61.523,-64.941,-38.574,0.000
1759622145.118,90.332,-59.570,-62.988,-36.133,0.000
1759622145.121,5.371,-62.988,-62.988,-20.508,0.000
1759622145.125,-19.531,-61.035,-61.523,-18.555,0.000
1759622145.129,56.641,-57.617,-57.617,-28.320,0.000
1759622145.133,81.055,-60.059,-59.082,-36.621,0.000
1759622145.137,2.441,-57.617,-60.059,-33.691,0.000
1759622145.141,-31.738,-55.664,-57.129,-25.391,0.000
1759622145.145,24.902,-61.035,-62.988,-42.969,0.000
1759622145.149,81.543,-55.176,-64.453,-46.387,0.000
1759622145.153,15.137,-48.828,-57.617,-29.785,0.000
1759622145.157,-49.805,-50.781,-57.617,-30.762,0.000
1759622145.160,-5.371,-52.734,-59.570,-41.992,0.000
1759622145.164,68.359,-54.688,-59.570,-49.805,0.000
1759622145.168,33.203,-53.711,-61.523,-52.734,0.000
1759622145.172,-41.992,-50.293,-64.941,-43.945,0.000
1759622145.176,-24.902,-49.316,-62.012,-41.016,0.000
1759622145.180,46.387,-50.781,-62.500,-52.734,0.000
1759622145.184,44.434,-50.781,-65.430,-59.570,0.000
1759622145.188,-7.812,-48.828,-65.918,-51.758,0.000
1759622145.192,-29.297,-51.758,-67.871,-44.922,0.000
1759622145.196,8.789,-56.641,-67.871,-49.805,0.000
1759622145.200,31.250,-61.035,-68.359,-60.059,0.000
1759622145.203,-17.090,-56.641,-62.012,-48.340,0.000
1759622145.207,-41.504,-58.105,-57.129,-36.621,0.000
1759622145.211,5.859,-61.523,-62.012,-53.711,0.000
1759622145.215,46.387,-55.664,-61.035,-79.590,0.000
1759622145.219,4.395,-50.781,-58.594,-65.918,0.000
1759622145.223,-33.691,-52.246,-53.711,-39.062,0.000
1759622145.227,-6.836,-54.688,-57.129,-60.059,0.000
1759622145.231,49.316,-47.363,-62.988,-69.336,0.000
1759622145.235,16.602,-41.992,-60.059,-68.359,0.000
1759622145.239,-45.898,-47.852,-58.105,-50.293,0.000
1759622145.242,-24.414,-50.781,-59.082,-42.480,0.000
1759622145.246,37.598,-52.734,-59.570,-69.336,0.000
1759622145.250,33.203,-56.152,-55.176,-79.102,0.000
1759622145.254,-42.969,-54.688,-55.664,-68.359,0.000
1759622145.258,-62.500,-56.152,-59.082,-66.895,0.000
1759622145.262,5.859,-54.688,-60.059,-70.312,0.000
1759622145.266,43.457,-48.828,-61.523,-66.406,0.000
1759622145.270,-25.879,-52.734,-60.547,-70.312,0.000
1759622145.274,-60.547,-58.594,-59.082,-63.477,0.000
1759622145.278,-7.324,-55.664,-53.711,-67.871,0.000
1759622145.282,34.668,-50.781,-48.340,-74.707,0.000
1759622145.285,-7.812,-49.805,-53.223,-65.430,0.000
1759622145.289,-67.871,-53.711,-58.594,-63.477,0.000
1759622145.293,-48.828,-58.105,-60.059,-80.078,0.000
1759622145.297,23.438,-52.734,-58.594,-86.914,0.000
1759622145.301,7.324,-48.340,-57.617,-87.891,0.000
1759622145.305,-59.082,-50.781,-55.176,-76.660,0.000
1759622145.309,-49.316,-52.734,-57.617,-70.312,0.000
1759622145.313,22.461,-53.223,-61.035,-73.242,0.000
1759622145.317,28.320,-55.664,-64.453,-87.891,0.000
1759622145.321,-44.922,-56.641,-62.988,-85.938,0.000
1759622145.324,-75.195,-54.688,-59.570,-79.102,0.000
1759622145.328,-5.371,-51.758,-56.641,-71.289,0.000
1759622145.332,47.852,-45.410,-56.641,-66.406,0.000
1759622145.336,-17.090,-41.016,-60.059,-78.125,0.000
1759622145.340,-69.824,-41.992,-59.082,-56.641,0.000
1759622145.344,-19.531,-48.340,-59.570,-57.617,0.000
1759622145.348,50.293,-52.734,-54.688,-76.660,0.000
1759622145.352,-7.812,-51.758,-49.805,-82.031,0.000
1759622145.356,-71.777,-50.293,-49.805,-69.336,0.000
1759622145.360,-37.109,-54.688,-52.246,-59.082,0.000
1759622145.364,26.367,-56.641,-53.223,-75.684,0.000
1759622145.367,2.930,-56.152,-53.711,-87.402,0.000
1759622145.371,-62.988,-62.988,-54.199,-77.148,0.000
1759622145.375,-70.312,-66.406,-54.199,-62.500,0.000
1759622145.379,1.953,-60.547,-54.688,-62.500,0.000
1759622145.383,21.484,-56.641,-54.688,-86.914,0.000
1759622145.387,-48.828,-57.129,-55.664,-72.754,0.000
1759622145.391,-70.312,-57.129,-55.176,-44.434,0.000
1759622145.395,-11.230,-55.664,-55.176,-66.406,0.000
1759622145.399,43.945,-55.664,-56.641,-77.637,0.000
1759622145.403,-3.418,-54.199,-57.617,-68.359,0.000
1759622145.406,-59.082,-52.246,-56.641,-58.594,0.000
1759622145.410,-33.691,-53.223,-59.082,-71.777,0.000
1759622145.414,42.969,-55.176,-60.059,-78.613,0.000
1759622145.418,4.395,-53.711,-57.617,-71.777,0.000
1759622145.422,-80.566,-51.758,-61.523,-68.359,0.000
1759622145.426,-56.641,-51.270,-60.059,-71.777,0.000
1759622145.430,14.648,-50.293,-52.246,-80.078,0.000
1759622145.434,11.230,-52.734,-50.293,-75.195,0.000
1759622145.438,-51.270,-50.293,-48.828,-54.199,0.000
1759622145.442,-60.547,-46.875,-50.293,-62.988,0.000
1759622145.446,0.488,-46.387,-57.617,-80.566,0.000
1759622145.449,29.297,-43.945,-55.664,-85.449,0.000
1759622145.453,-30.762,-49.316,-50.781,-79.102,0.000
1759622145.457,-58.594,-54.199,-54.199,-58.105,0.000
1759622145.461,-19.043,-54.688,-57.617,-78.125,0.000
1759622145.465,24.902,-54.199,-59.082,-101.074,0.000
1759622145.469,-23.438,-56.152,-62.012,-97.168,0.000
1759622145.473,-63.965,-62.500,-63.477,-81.055,0.000
1759622145.477,-35.645,-64.941,-62.012,-79.590,0.000
1759622145.481,22.461,-64.941,-61.523,-96.191,0.000
1759622145.485,-5.859,-60.547,-62.500,-103.027,0.000
1759622145.488,-70.801,-54.199,-62.012,-83.496,0.000
1759622145.492,-49.316,-55.664,-62.012,-80.078,0.000
1759622145.496,30.273,-57.129,-62.988,-94.238,0.000
1759622145.500,12.695,-55.176,-68.848,-107.910,0.000
1759622145.504,-68.848,-61.035,-70.312,-92.773,0.000
1759622145.508,-69.824,-59.082,-67.871,-83.984,0.000
1759622145.512,-14.160,-54.688,-66.895,-105.957,0.000
1759622145.516,13.184,-56.641,-63.965,-114.258,0.000
1759622145.520,-46.875,-55.176,-61.035,-107.910,0.000
1759622145.524,-65.430,-53.223,-57.129,-81.543,0.000
1759622145.528,-7.812,-53.223,-58.105,-84.473,0.000
1759622145.531,35.645,-50.781,-68.359,-114.258,0.000
1759622145.535,-12.695,-53.223,-66.406,-108.398,0.000
1759622145.539,-63.477,-55.664,-64.941,-93.262,0.000
1759622145.543,-43.457,-52.246,-69.824,-108.398,0.000
1759622145.547,31.738,-51.758,-65.430,-122.559,0.000
1759622145.551,10.742,-54.199,-62.500,-127.441,0.000
1759622145.555,-72.266,-56.152,-62.012,-110.840,0.000
1759622145.559,-58.594,-57.617,-61.035,-102.051,0.000
1759622145.563,3.906,-57.129,-63.477,-115.234,0.000
1759622145.567,12.207,-61.523,-65.918,-124.512,0.000
1759622145.571,-41.504,-61.035,-61.035,-97.168,0.000
1759622145.574,-63.477,-57.129,-58.105,-90.820,0.000
1759622145.578,-4.395,-58.594,-59.570,-114.258,0.000
1759622145.582,40.527,-54.688,-59.082,-115.723,0.000
1759622145.586,-23.926,-48.340,-62.012,-103.027,0.000
1759622145.590,-72.266,-50.293,-60.547,-85.449,0.000
1759622145.594,-20.996,-55.664,-60.547,-87.891,0.000
1759622145.598,42.480,-58.594,-62.988,-108.398,0.000
1759622145.602,-4.395,-54.688,-57.617,-101.074,0.000
1759622145.606,-77.148,-54.199,-59.570,-78.613,0.000
1759622145.610,-54.688,-58.105,-64.453,-93.262,0.000
1759622145.613,25.879,-59.082,-62.988,-85.938,0.000
1759622145.617,23.926,-57.617,-60.547,-77.637,0.000
1759622145.621,-44.922,-51.758,-60.547,-87.891,0.000
1759622145.625,-50.781,-50.293,-55.176,-70.312,0.000
1759622145.629,15.625,-55.176,-53.223,-80.078,0.000
1759622145.633,28.320,-54.199,-51.758,-99.609,0.000
1759622145.637,-33.691,-52.734,-52.734,-85.449,0.000
1759622145.641,-44.434,-52.246,-58.105,-74.707,0.000
1759622145.645,9.766,-49.805,-56.641,-88.867,0.000
1759622145.649,52.246,-50.293,-58.105,-105.469,0.000
1759622145.653,-3.418,-52.246,-60.547,-96.191,0.000
1759622145.656,-49.805,-53.711,-57.617,-79.102,0.000
1759622145.660,11.230,-53.711,-58.594,-83.984,0.000
1759622145.664,35.645,-50.781,-60.547,-96.680,0.000
1759622145.668,-35.645,-52.246,-56.152,-107.910,0.000
1759622145.672,-77.637,-54.199,-52.734,-88.379,0.000
1759622145.676,-49.805,-56.152,-50.781,-83.008,0.000
1759622145.680,16.602,-51.270,-55.176,-106.445,0.000
1759622145.684,6.836,-44.922,-55.176,-108.398,0.000
1759622145.688,-57.617,-53.223,-52.734,-89.844,0.000
1759622145.692,-57.617,-55.664,-56.641,-88.379,0.000
1759622145.695,12.695,-52.734,-62.500,-102.539,0.000
1759622145.699,39.551,-59.570,-69.824,-111.816,0.000
1759622145.703,-45.898,-58.594,-68.359,-88.379,0.000
1759622145.707,-83.984,-55.664,-60.547,-61.035,0.000
1759622145.711,-20.020,-55.664,-62.012,-81.543,0.000
1759622145.715,19.531,-57.129,-66.895,-106.445,0.000
1759622145.719,-32.227,-60.547,-63.965,-110.840,0.000
1759622145.723,-72.754,-55.176,-60.547,-86.426,0.000
1759622145.727,-41.016,-54.688,-60.547,-84.473,0.000
1759622145.731,27.344,-56.152,-60.059,-96.680,0.000
1759622145.735,7.324,-53.711,-61.523,-90.820,0.000
1759622145.738,-72.266,-55.664,-62.500,-85.449,0.000
1759622145.742,-53.711,-57.129,-64.941,-88.379,0.000
1759622145.746,27.832,-52.246,-67.383,-106.445,0.000
1759622145.750,14.160,-53.223,-65.430,-117.676,0.000
1759622145.754,-47.852,-55.176,-63.477,-113.281,0.000
1759622145.758,-53.711,-44.434,-59.082,-107.422,0.000
1759622145.762,-2.441,-40.527,-55.664,-107.422,0.000
1759622145.766,34.180,-45.410,-58.105,-114.746,0.000
1759622145.770,-20.996,-44.434,-60.547,-113.770,0.000
1759622145.774,-53.711,-44.434,-57.129,-102.051,0.000
1759622145.778,-4.395,-48.828,-61.035,-98.145,0.000
1759622145.781,42.480,-49.316,-64.453,-111.816,0.000
1759622145.785,-12.207,-51.270,-62.988,-108.398,0.000
1759622145.789,-68.359,-52.246,-64.453,-92.773,0.000
1759622145.793,-42.969,-53.711,-62.988,-96.680,0.000
1759622145.797,20.508,-51.270,-66.895,-110.352,0.000
1759622145.801,0.977,-47.363,-64.941,-116.699,0.000
1759622145.805,-44.922,-50.781,-57.129,-89.844,0.000
1759622145.809,-32.715,-54.688,-56.641,-78.613,0.000
1759622145.813,28.809,-54.199,-55.664,-95.703,0.000
1759622145.817,26.855,-49.805,-58.105,-98.633,0.000
1759622145.820,-47.363,-45.898,-55.664,-85.938,0.000
1759622145.824,-44.922,-49.316,-49.805,-73.730,0.000
1759622145.828,13.672,-45.898,-48.340,-74.707,0.000
1759622145.832,37.598,-38.574,-51.270,-92.773,0.000
1759622145.836,-15.137,-44.922,-54.199,-84.961,0.000
1759622145.840,-54.688,-51.270,-55.176,-72.266,0.000
1759622145.844,-14.160,-46.875,-61.035,-93.750,0.000
1759622145.848,30.762,-43.457,-62.012,-105.469,0.000
1759622145.852,-20.508,-45.410,-54.688,-103.027,0.000
1759622145.856,-58.594,-48.340,-54.199,-87.402,0.000
1759622145.860,-40.527,-46.875,-61.035,-95.215,0.000
1759622145.863,30.762,-42.969,-57.129,-103.027,0.000
1759622145.867,24.902,-49.316,-57.129,-104.004,0.000
1759622145.871,-57.617,-47.852,-57.129,-98.633,0.000
1759622145.875,-52.734,-48.828,-54.688,-95.703,0.000
1759622145.879,16.602,-55.664,-57.129,-103.516,0.000
1759622145.883,9.766,-57.129,-61.035,-116.699,0.000
1759622145.887,-69.824,-60.059,-61.035,-107.422,0.000
1759622145.891,-80.566,-61.035,-58.105,-93.750,0.000
1759622145.895,-6.836,-56.641,-58.594,-106.934,0.000
1759622145.899,41.992,-51.758,-60.059,-102.051,0.000
1759622145.902,-16.602,-52.246,-58.105,-85.449,0.000
1759622145.906,-59.082,-52.246,-57.617,-83.984,0.000
1759622145.910,-15.137,-52.734,-61.035,-91.797,0.000
1759622145.914,38.086,-51.270,-57.129,-100.586,0.000
1759622145.918,1.465,-47.363,-53.711,-104.492,0.000
1759622145.922,-72.754,-52.734,-56.152,-88.379,0.000
1759622145.926,-59.570,-57.129,-52.734,-89.355,0.000
1759622145.930,17.578,-56.641,-55.664,-106.445,0.000
1759622145.934,2.441,-54.199,-59.570,-113.281,0.000
1759622145.938,-63.965,-52.246,-58.105,-93.750,0.000
1759622145.942,-60.059,-49.316,-57.129,-79.102,0.000
1759622145.945,12.695,-47.852,-59.570,-83.984,0.000
1759622145.949,28.320,-50.781,-63.965,-99.121,0.000
1759622145.953,-38.574,-50.293,-62.012,-101.562,0.000
1759622145.957,-64.453,-45.898,-62.988,-83.984,0.000
1759622145.961,3.906,-43.945,-59.570,-92.773,0.000
1759622145.965,40.527,-42.969,-58.105,-106.445,0.000
1759622145.969,-41.016,-41.504,-56.641,-94.238,0.000
1759622145.973,-83.984,-42.969,-55.176,-84.473,0.000
1759622145.977,-42.969,-41.992,-58.594,-98.633,0.000
1759622145.981,21.484,-37.598,-66.895,-104.492,0.000
1759622145.984,-8.301,-39.551,-69.824,-112.305,0.000
1759622145.988,-69.336,-44.922,-63.477,-97.168,0.000
1759622145.992,-49.316,-46.875,-59.082,-88.867,0.000
1759622145.996,15.137,-43.457,-60.547,-110.352,0.000
1759622146.000,12.695,-42.480,-60.547,-119.629,0.000
1759622146.004,-42.969,-41.016,-55.664,-99.609,0.000
1759622146.008,-56.152,-38.574,-53.711,-83.008,0.000
1759622146.012,1.465,-40.527,-53.711,-105.469,0.000
1759622146.016,35.645,-38.574,-55.176,-121.094,0.000
1759622146.020,-25.391,-41.016,-57.617,-103.516,0.000
1759622146.024,-70.312,-47.852,-57.129,-91.797,0.000
1759622146.027,-29.785,-46.875,-57.129,-98.633,0.000
1759622146.031,27.832,-46.875,-59.570,-109.863,0.000
1759622146.035,-18.066,-52.246,-62.012,-114.746,0.000
1759622146.039,-51.758,-52.246,-63.477,-104.004,0.000
1759622146.043,-20.020,-51.758,-55.664,-103.027,0.000
1759622146.047,21.973,-53.223,-52.734,-111.816,0.000
1759622146.051,1.953,-54.199,-57.129,-112.793,0.000
1759622146.055,-64.453,-52.734,-58.105,-95.703,0.000
1759622146.059,-57.129,-50.781,-58.594,-94.727,0.000
1759622146.063,18.066,-48.340,-56.641,-102.539,0.000
1759622146.067,23.926,-47.363,-52.734,-115.723,0.000
1759622146.070,-48.828,-52.246,-54.199,-115.723,0.000
1759622146.074,-56.152,-55.664,-55.664,-100.098,0.000
1759622146.078,0.977,-53.223,-53.711,-93.750,0.000
1759622146.082,28.809,-53.711,-55.664,-98.633,0.000
1759622146.086,-21.484,-58.105,-55.664,-104.980,0.000
1759622146.090,-65.918,-54.688,-50.293,-88.379,0.000
1759622146.094,-22.461,-47.852,-47.363,-94.727,0.000
1759622146.098,36.133,-41.992,-50.781,-111.328,0.000
1759622146.102,-17.090,-42.480,-55.664,-101.562,0.000
1759622146.106,-81.543,-46.875,-61.523,-93.262,0.000
1759622146.109,-55.664,-47.363,-53.223,-102.051,0.000
1759622146.113,25.391,-45.410,-43.945,-100.586,0.000
1759622146.117,17.090,-44.434,-44.922,-97.168,0.000
1759622146.121,-42.480,-46.387,-46.387,-87.402,0.000
1759622146.125,-37.598,-45.898,-52.246,-83.008,0.000
1759622146.129,11.719,-45.898,-53.711,-98.145,0.000
1759622146.133,14.648,-51.758,-54.688,-110.840,0.000
1759622146.137,-57.617,-52.734,-44.922,-106.445,0.000
1759622146.141,-85.938,-45.898,-30.273,-99.121,0.000
1759622146.145,-25.879,-37.598,-42.480,-112.305,0.000
1759622146.149,16.113,-39.062,-56.152,-132.324,0.000
1759622146.152,-57.129,-31.250,-43.457,-126.953,0.000
1759622146.156,-103.027,-20.508,-32.227,-115.723,0.000
1759622146.160,-72.754,-30.273,-46.875,-155.273,0.000
1759622146.164,-42.969,-43.945,-50.293,-193.848,0.000
1759622146.168,-102.051,-35.645,-43.457,-199.707,0.000
1759622146.172,-188.477,-20.996,-38.574,-197.266,0.000
1759622146.176,-193.359,-17.090,-39.062,-231.934,0.000
1759622146.180,-140.625,-4.395,-31.738,-272.461,0.000
1759622146.184,-162.598,3.418,-31.738,-292.969,0.000
1759622146.188,-257.324,-12.695,-36.133,-296.875,0.000
1759622146.191,-285.156,-14.648,-33.203,-305.176,0.000
1759622146.195,-184.570,-0.488,-27.832,-295.898,0.000
1759622146.199,-156.250,5.371,-20.996,-312.012,0.000
1759622146.203,-288.086,4.395,-37.109,-336.914,0.000
1759622146.207,-316.406,-3.906,-41.016,-310.547,0.000
1759622146.211,-229.492,-10.254,-34.180,-308.594,0.000
1759622146.215,-176.270,-9.766,-35.645,-313.477,0.000
1759622146.219,-223.633,-15.137,-32.227,-302.734,0.000
1759622146.223,-268.066,-9.766,-33.203,-281.250,0.000
1759622146.227,-212.402,-8.301,-37.109,-274.414,0.000
1759622146.231,-139.648,-15.625,-28.320,-267.090,0.000
1759622146.234,-176.270,-26.855,-21.484,-258.789,0.000
1759622146.238,-225.098,-22.461,-27.832,-253.418,0.000
1759622146.242,-201.660,-17.578,-39.551,-245.605,0.000
1759622146.246,-129.395,-29.785,-39.551,-241.699,0.000
1759622146.250,-126.465,-35.156,-39.062,-252.441,0.000
1759622146.254,-185.059,-28.809,-39.062,-231.934,0.000
1759622146.258,-179.688,-16.602,-43.945,-204.102,0.000
1759622146.262,-114.258,-19.531,-42.969,-209.961,0.000
1759622146.266,-89.355,-26.367,-41.504,-215.332,0.000
1759622146.270,-129.395,-30.273,-40.039,-192.383,0.000
1759622146.273,-142.090,-30.762,-39.551,-150.391,0.000
1759622146.277,-95.215,-38.086,-41.992,-141.602,0.000
1759622146.281,-35.156,-38.086,-45.898,-169.922,0.000
1759622146.285,-59.082,-35.156,-48.828,-161.133,0.000
1759622146.289,-96.191,-41.016,-44.434,-116.699,0.000
1759622146.293,-62.988,-42.480,-46.387,-110.352,0.000
1759622146.297,3.906,-38.574,-52.246,-122.070,0.000
1759622146.301,-24.902,-37.598,-55.176,-125.977,0.000
1759622146.305,-91.797,-45.410,-53.711,-116.699,0.000
1759622146.309,-89.355,-49.805,-59.570,-108.887,0.000
1759622146.313,-20.020,-47.852,-56.152,-108.887,0.000
1759622146.316,1.953,-44.434,-50.781,-105.957,0.000
1759622146.320,-47.363,-45.410,-57.617,-62.500,0.000
1759622146.324,-40.039,-49.316,-62.500,-38.086,0.000
1759622146.328,36.133,-51.270,-65.918,-53.223,0.000
1759622146.332,68.359,-54.688,-62.988,-48.828,0.000
1759622146.336,19.043,-55.176,-65.430,-33.203,0.000
1759622146.340,-3.418,-55.176,-69.824,-19.043,0.000
1759622146.344,41.992,-62.012,-71.289,-23.438,0.000
1759622146.348,97.656,-69.336,-71.289,-23.438,0.000
1759622146.352,67.871,-68.848,-65.430,2.441,0.000
1759622146.356,20.020,-63.477,-66.406,28.320,0.000
1759622146.359,54.199,-64.453,-67.383,20.508,0.000
1759622146.363,123.535,-65.430,-67.383,23.926,0.000
1759622146.367,109.375,-65.430,-71.777,22.461,0.000
1759622146.371,66.895,-63.965,-73.242,16.113,0.000
1759622146.375,68.848,-67.383,-74.707,21.973,0.000
1759622146.379,92.773,-72.266,-75.684,12.695,0.000
1759622146.383,110.352,-74.219,-69.336,13.184,0.000
1759622146.387,71.777,-75.195,-63.965,31.250,0.000
1759622146.391,43.457,-74.219,-60.547,51.270,0.000
1759622146.395,102.539,-74.707,-64.941,35.156,0.000
1759622146.398,177.734,-79.590,-64.941,18.555,0.000
1759622146.402,122.559,-79.590,-65.918,26.367,0.000
1759622146.406,19.043,-78.125,-74.707,31.738,0.000
1759622146.410,32.227,-82.031,-80.078,28.809,0.000
1759622146.414,108.398,-78.125,-76.660,8.789,0.000
1759622146.418,88.867,-71.289,-65.918,-3.906,0.000
1759622146.422,45.898,-69.824,-58.594,3.418,0.000
1759622146.426,53.711,-75.195,-67.383,-15.137,0.000
1759622146.430,88.867,-72.754,-56.641,-33.691,0.000
1759622146.434,69.336,-54.199,-51.758,-23.926,0.000
1759622146.438,15.137,-50.293,-68.848,2.441,0.000
1759622146.441,11.230,-54.199,-62.988,-3.906,0.000
1759622146.445,67.383,-64.453,-64.453,-30.273,0.000
1759622146.449,81.543,-65.918,-62.012,-52.246,0.000
1759622146.453,7.812,-55.664,-49.316,-55.664,0.000
1759622146.457,-26.855,-55.176,-41.016,-34.180,0.000
1759622146.461,13.672,-55.664,-45.410,-68.848,0.000
1759622146.465,33.691,-51.758,-45.410,-102.539,0.000
1759622146.469,-27.344,-50.293,-36.621,-101.074,0.000
1759622146.473,-96.680,-46.387,-45.410,-118.652,0.000
1759622146.477,-101.562,-41.992,-53.223,-161.621,0.000
1759622146.480,-59.570,-36.621,-45.410,-185.547,0.000
1759622146.484,-110.840,-31.738,-49.805,-212.891,0.000
1759622146.488,-195.312,-27.832,-50.293,-218.262,0.000
1759622146.492,-179.199,-25.391,-47.363,-212.891,0.000
1759622146.496,-91.309,-26.855,-45.898,-225.098,0.000
1759622146.500,-99.609,-29.785,-44.434,-213.867,0.000
1759622146.504,-171.387,-31.250,-38.574,-193.848,0.000
1759622146.508,-159.180,-33.203,-29.785,-191.895,0.000
1759622146.512,-91.309,-34.180,-34.180,-188.965,0.000
1759622146.516,-60.059,-34.668,-42.480,-177.246,0.000
1759622146.520,-110.840,-38.574,-46.387,-153.809,0.000
1759622146.523,-128.906,-41.992,-42.480,-124.512,0.000
1759622146.527,-41.504,-44.922,-44.922,-101.074,0.000
1759622146.531,27.344,-42.969,-52.246,-91.309,0.000
1759622146.535,-17.578,-42.969,-48.828,-80.566,0.000
1759622146.539,-53.223,-47.363,-51.758,-53.223,0.000
1759622146.543,-4.395,-47.852,-56.641,-38.574,0.000
1759622146.547,64.941,-51.270,-58.594,-38.574,0.000
1759622146.551,40.527,-54.688,-60.547,-43.457,0.000
1759622146.555,-8.789,-58.594,-63.477,-26.367,0.000
1759622146.559,7.812,-62.012,-66.895,-10.254,0.000
1759622146.562,77.637,-60.059,-71.777,-19.531,0.000
1759622146.566,80.078,-62.012,-72.754,-31.250,0.000
1759622146.570,20.996,-71.289,-70.312,-12.207,0.000
1759622146.574,23.926,-74.707,-68.359,6.836,0.000
1759622146.578,70.312,-70.312,-64.453,-3.418,0.000
1759622146.582,84.473,-71.289,-62.012,1.465,0.000
1759622146.586,43.945,-73.242,-65.918,14.648,0.000
1759622146.590,13.184,-72.266,-68.848,28.809,0.000
1759622146.594,48.340,-69.824,-67.383,23.926,0.000
1759622146.598,106.445,-67.383,-64.941,5.371,0.000
1759622146.602,73.242,-66.895,-64.941,3.418,0.000
1759622146.605,12.695,-62.012,-63.965,19.531,0.000
1759622146.609,37.109,-61.523,-65.430,6.836,0.000
1759622146.613,98.145,-67.383,-62.500,-12.207,0.000
1759622146.617,68.359,-69.824,-57.129,-11.230,0.000
1759622146.621,12.695,-65.430,-55.664,5.859,0.000
1759622146.625,15.137,-60.059,-60.059,9.277,0.000
1759622146.629,73.730,-59.082,-67.871,-15.137,0.000
1759622146.633,86.914,-52.734,-69.336,-22.461,0.000
1759622146.637,16.602,-48.828,-68.848,-0.977,0.000
1759622146.641,0.488,-51.270,-66.895,12.695,0.000
1759622146.645,56.641,-54.199,-71.289,-8.789,0.000
1759622146.648,104.492,-55.176,-68.848,-18.066,0.000
1759622146.652,42.480,-53.711,-62.500,0.000,0.000
1759622146.656,-14.160,-52.734,-68.359,-0.488,0.000
1759622146.660,32.227,-53.711,-65.430,-28.809,0.000
1759622146.664,89.844,-57.129,-66.895,-44.922,0.000
1759622146.668,49.316,-52.246,-70.312,-28.809,0.000
1759622146.672,-8.789,-50.293,-66.895,-10.742,0.000
1759622146.676,13.672,-50.293,-69.824,-11.719,0.000
1759622146.680,80.566,-51.758,-68.848,-23.438,0.000
1759622146.684,70.312,-58.105,-66.406,-34.180,0.000
1759622146.687,-5.371,-56.641,-69.336,-29.297,0.000
1759622146.691,-20.020,-51.270,-63.477,-19.043,0.000
1759622146.695,48.828,-47.363,-58.594,-14.160,0.000
1759622146.699,66.406,-48.828,-66.406,-35.156,0.000
1759622146.703,-9.277,-56.152,-72.266,-37.598,0.000
1759622146.707,-20.996,-53.711,-66.895,-22.949,0.000
1759622146.711,47.852,-48.340,-64.453,-34.180,0.000
1759622146.715,59.570,-54.199,-70.801,-46.875,0.000
1759622146.719,-14.160,-59.570,-71.289,-41.016,0.000
1759622146.723,-52.734,-59.082,-64.941,-26.367,0.000
1759622146.727,6.836,-59.570,-60.059,-38.086,0.000
1759622146.730,74.707,-62.012,-60.059,-49.316,0.000
1759622146.734,15.625,-64.941,-59.570,-44.434,0.000
1759622146.738,-46.387,-63.965,-62.988,-20.996,0.000
1759622146.742,-30.762,-54.688,-62.988,-19.531,0.000
1759622146.746,29.297,-53.223,-57.617,-51.758,0.000
1759622146.750,28.809,-53.711,-57.129,-62.500,0.000
1759622146.754,-41.016,-52.246,-59.570,-41.992,0.000
1759622146.758,-50.293,-54.688,-59.082,-29.297,0.000
1759622146.762,16.113,-55.664,-61.035,-43.945,0.000
1759622146.766,54.688,-55.664,-63.965,-61.523,0.000
1759622146.769,-22.461,-55.176,-61.035,-48.340,0.000
1759622146.773,-79.102,-60.547,-57.129,-24.414,0.000
1759622146.777,-19.043,-61.523,-59.082,-48.340,0.000
1759622146.781,36.133,-54.199,-59.570,-67.871,0.000
1759622146.785,-11.230,-52.734,-55.664,-49.805,0.000
1759622146.789,-52.734,-52.246,-55.176,-37.109,0.000
1759622146.793,-15.625,-50.781,-57.617,-46.875,0.000
1759622146.797,48.828,-49.316,-62.500,-57.129,0.000
1759622146.801,23.926,-50.293,-61.523,-52.734,0.000
1759622146.805,-41.992,-47.363,-52.734,-26.855,0.000
1759622146.809,-22.461,-45.898,-55.664,-21.484,0.000
1759622146.812,48.340,-48.828,-60.059,-34.180,0.000
1759622146.816,41.992,-46.387,-58.594,-46.875,0.000
1759622146.820,-30.762,-47.363,-62.500,-36.621,0.000
1759622146.824,-40.039,-52.734,-60.547,-23.438,0.000
1759622146.828,22.949,-51.758,-57.129,-33.691,0.000
1759622146.832,41.992,-51.270,-59.082,-55.176,0.000
1759622146.836,-36.621,-55.176,-63.477,-60.059,0.000
1759622146.840,-62.500,-61.035,-61.035,-35.645,0.000
1759622146.844,5.371,-62.012,-55.176,-31.250,0.000
1759622146.848,55.176,-59.570,-54.199,-40.527,0.000
1759622146.851,2.441,-59.570,-53.223,-38.574,0.000
1759622146.855,-49.316,-59.570,-54.688,-24.902,0.000
1759622146.859,-22.949,-57.617,-55.176,-26.367,0.000
1759622146.863,43.457,-53.223,-60.059,-39.551,0.000
1759622146.867,25.391,-52.734,-62.500,-42.969,0.000
1759622146.871,-36.133,-49.805,-59.570,-25.391,0.000
1759622146.875,-32.715,-46.875,-55.176,-21.973,0.000
1759622146.879,13.672,-54.688,-58.594,-46.875,0.000
1759622146.883,31.738,-54.688,-63.965,-59.570,0.000
1759622146.887,-31.738,-53.223,-65.430,-34.668,0.000
1759622146.891,-61.523,-48.340,-63.477,-21.484,0.000
1759622146.894,2.441,-41.016,-56.641,-39.551,0.000
1759622146.898,38.086,-40.039,-56.152,-54.688,0.000
1759622146.902,-16.602,-39.551,-54.199,-43.945,0.000
1759622146.906,-55.664,-46.875,-54.199,-23.438,0.000
1759622146.910,-15.137,-49.805,-57.617,-40.039,0.000
1759622146.914,44.922,-47.852,-57.617,-55.176,0.000
1759622146.918,9.766,-42.969,-49.805,-43.457,0.000
1759622146.922,-48.828,-40.039,-47.363,-14.648,0.000
1759622146.926,-25.879,-40.527,-45.898,-18.555,0.000
1759622146.930,35.645,-34.668,-51.270,-40.527,0.000
1759622146.933,26.855,-32.227,-54.688,-30.273,0.000
1759622146.937,-25.879,-46.387,-51.758,-8.301,0.000
1759622146.941,-39.551,-45.410,-53.711,-14.648,0.000
1759622146.945,19.531,-38.086,-50.293,-27.832,0.000
1759622146.949,30.762,-44.434,-55.176,-34.180,0.000
1759622146.953,-47.363,-49.805,-62.500,-23.438,0.000
1759622146.957,-62.012,-55.176,-60.547,-16.113,0.000
1759622146.961,-4.395,-59.570,-59.082,-30.273,0.000
1759622146.965,35.645,-55.176,-59.570,-37.598,0.000
1759622146.969,-20.508,-51.270,-59.570,-36.621,0.000
1759622146.973,-71.289,-55.664,-57.129,-25.879,0.000
1759622146.976,-26.855,-53.223,-54.688,-29.785,0.000
1759622146.980,37.598,-48.828,-54.688,-39.062,0.000
1759622146.984,-4.883,-48.340,-58.594,-43.945,0.000
1759622146.988,-50.781,-45.898,-60.547,-27.832,0.000
1759622146.992,-25.391,-47.852,-58.105,-30.762,0.000
1759622146.996,1.465,-47.363,-55.664,-47.852,0.000
1759622147.000,-3.906,-43.945,-55.176,-52.246,0.000
1759622147.004,-46.875,-48.828,-55.664,-28.809,0.000
1759622147.008,-55.664,-52.246,-53.711,-13.184,0.000
1759622147.012,-2.441,-52.734,-52.246,-42.480,0.000
1759622147.016,11.230,-49.316,-52.734,-46.875,0.000
1759622147.019,-44.922,-54.688,-51.270,-36.133,0.000
1759622147.023,-63.965,-61.035,-49.316,-15.625,0.000
1759622147.027,-2.930,-59.082,-49.316,-21.973,0.000
1759622147.031,36.133,-54.688,-50.781,-43.945,0.000
1759622147.035,-35.156,-51.270,-55.176,-32.227,0.000
